#------------------------------------------------------------------------------
#$Date: 2019-06-12 16:31:35 +0300 (Wed, 12 Jun 2019) $
#$Revision: 1351 $
#$URL: svn://172.16.1.102/rod/cif/3/50/02/3500283.rod $
#------------------------------------------------------------------------------
#
# This file is available in the Raman Open Database (ROD),
# http://solsa.crystallography.net/rod/
#
# All data on this site have been placed in the public domain by the
# contributors.
#
data_3500283
loop_
_publ_author_name
'Kumar, A.'
'Zanatta, M.'
'Bersani, D'
'Daldosso, N.'
'Mariotto, G.'
_publ_section_title
;
 Raman spectrum of Fe3O4
;
_journal_name_full               'Personal communication to ROD'
_journal_year                    2019
_chemical_compound_source        natural
_chemical_formula_sum            'Fe3 O4'
_space_group_IT_number           216
_symmetry_space_group_name_Hall  'F -4 2 3'
_symmetry_space_group_name_H-M   'F -4 3 m'
_cell_angle_alpha                90
_cell_angle_beta                 90
_cell_angle_gamma                90
_cell_formula_units_Z            8
_cell_length_a                   8.3941
_cell_length_b                   8.3941
_cell_length_c                   8.3941
_cell_volume                     591.456
_cod_original_formula_sum        O4Fe3
_raman_determination_method      experimental
_[local]_chemical_compound_color white
_[local]_chemical_compound_state Solid
_raman_measurement_device.location 'University of Verona'
_raman_measurement_device.company
'Thermo Scientific_raman_measurement_device.model DXR2'
_raman_measurement_device.optics_type microscope
_raman_measurement_device.microscope_system dispersive
_raman_measurement_device.microscope_objective_magnification 50
_raman_measurement_device.microscope_numerical_aperture 0.50
_raman_measurement_device.excitation_laser_type helium-neon
_raman_measurement_device.excitation_laser_wavelength 633
_raman_measurement_device.configuration simple
_raman_measurement_device.resolution 1
_raman_measurement_device.power_on_sample 8
_raman_measurement_device.direction_polarization unoriented
_raman_measurement_device.spot_size 1.5
_raman_measurement.environment   Air
_raman_measurement.environment_details
;
 The sample was measured in air.
;
_raman_measurement.temperature   300
_raman_measurement.pressure      100
_raman_measurement.background_subtraction no
_raman_measurement.background_subtraction_details
;
 No background subtraction method was applied.
;
_raman_measurement.baseline_correction no
_raman_measurement.baseline_correction_details
;
 No baseline correction method was applied.
;
_raman_measurement.integration_time 30
_raman_measurement.datetime_initiated 2019-04-19
_rod_data_source.file            Fe3O4.txt
_rod_data_source.block
/var/www/html/rod/tmp/uploads/1560346129.0959-06A4055A28351D0A.rod
_rod_database.code               3500283
loop_
_raman_complementary.id
_raman_complementary.method
1 EDX
loop_
_raman_measurement_device_calibration.id
_raman_measurement_device_calibration.standard
1 silicon_wafer
loop_
_rod_related_entry.id
_rod_related_entry.code
_rod_related_entry.database
_rod_related_entry.uri
_rod_related_entry.description
1 1539747 COD http://www.crystallography.net/cod/1539747.html
;
no XRD analysis data.
;
loop_
_raman_spectrum.raman_shift
_raman_spectrum.raw_intensity
_raman_spectrum.intensity
50.68116 95.277412 10.843681
51.64539 95.194206 10.824753
52.609619 95.10553 10.800327
53.57386 94.982063 10.741086
54.53809 94.729683 10.55291
55.502319 94.37059 10.257994
56.46656 94.211647 10.163208
57.43079 94.376167 10.391859
58.395031 94.805923 10.885729
59.359261 95.063469 11.207363
60.32349 94.936058 11.144024
61.287731 94.34082 10.612835
62.251961 93.411926 9.7479706
63.21619 92.632668 9.0327253
64.180428 92.045113 8.5091591
65.144661 91.642281 8.1703081
66.108887 91.376961 7.9689412
67.073128 91.272469 7.9283957
68.037361 91.345993 8.0658493
69.001587 91.523041 8.3068056
69.965828 91.639397 8.4870567
70.930061 91.6912 8.6027441
71.894287 91.662979 8.6383944
72.858528 91.519333 8.5586052
73.822762 91.218018 8.3211355
74.786987 90.742989 7.9099388
75.751228 90.186996 7.4177713
76.715462 89.692177 6.9867649
77.679703 89.267441 6.6258259
78.643929 88.922668 6.3448462
79.608162 88.661293 6.1472492
80.572403 88.533241 6.0829744
81.536629 88.571533 6.1850309
82.50087 88.649521 6.3267784
83.465103 88.595306 6.3363156
84.429337 88.331093 6.1358457
85.39357 87.788399 5.6568918
86.357803 87.49192 5.4241476
87.322037 87.497093 5.4930525
88.28627 87.853287 5.9129667
89.250504 88.283081 6.4064817
90.214737 88.602982 6.7901001
91.17897 88.834381 7.0852122
92.143204 88.973877 7.2884197
93.107437 88.911507 7.2897573
94.071671 88.535912 6.9778709
95.035896 87.826973 6.3326435
96.000137 87.133926 5.7033005
96.964371 86.642891 5.2759733
97.928596 86.384644 5.0814276
98.892838 86.326767 5.0872593
99.857071 86.273376 5.0975795
100.8213 86.201347 5.0892611
101.7855 86.12603 5.0776539
102.7498 86.054367 5.0697112
103.714 86.010773 5.0898333
104.6782 86.011162 5.1539388
105.6425 86.046333 5.2528424
106.6067 86.083794 5.3540297
107.5709 86.131058 5.4650264
108.5352 86.192253 5.5899639
109.4994 86.118347 5.5798016
110.4636 85.836739 5.3619442
111.4279 85.301331 4.8902941
112.3921 84.662308 4.315033
113.3563 84.18512 3.9016161
114.3206 83.91333 3.69361
115.2848 83.90284 3.7469046
116.249 83.887894 3.7957513
117.2133 83.873421 3.8450847
118.1775 83.871361 3.9068346
119.1417 83.850304 3.9496002
120.106 83.77449 3.9376247
121.0702 83.635262 3.8622351
122.0344 83.420647 3.7114701
122.9987 83.255592 3.6102853
123.9629 83.128639 3.5472052
124.9271 83.034286 3.5167375
125.8914 82.95594 3.5022931
126.8556 82.89505 3.5053139
127.8198 82.869164 3.5433514
128.7841 82.879967 3.6180964
129.74831 82.83181 3.6338866
130.71249 82.701698 3.5677373
131.6768 82.481987 3.4120097
132.64101 82.290939 3.2849541
133.6053 82.153671 3.2116985
134.5695 82.059357 3.1814024
135.53371 81.992409 3.1784909
136.498 81.939621 3.1897604
137.4622 81.923622 3.2378302
138.42641 82.002731 3.3810265
139.3907 81.986053 3.4284534
140.3549 81.834099 3.3406162
141.31911 81.497231 3.0678844
142.2834 81.099533 2.7343457
143.2476 80.844139 2.543124
144.21181 80.76857 2.5317433
145.1761 80.950867 2.7782545
146.1403 81.026627 2.9182398
147.10451 80.993347 2.9492061
148.0688 80.820793 2.8409207
149.033 80.578133 2.662544
149.99719 80.300873 2.4495888
150.9615 79.959846 2.1728942
151.9257 79.556137 1.8335285
152.88989 79.263527 1.6052794
153.8542 79.151207 1.5573554
154.81841 79.254471 1.7250242
155.78259 79.382942 1.917922
156.7469 79.446098 2.0455356
157.71111 79.397003 2.0609145
158.67529 79.263641 1.9920449
159.6396 79.223877 2.0168037
160.60381 79.333214 2.190681
161.56799 79.684357 2.6063864
162.5323 79.929672 2.9162908
163.49651 80.00071 3.051939
164.46069 79.827431 2.9432893
165.425 79.554832 2.7353535
166.38921 79.433403 2.6786051
167.35339 79.516373 2.8262777
168.3177 79.904617 3.2792585
169.28191 80.113571 3.5529668
170.24609 80.094872 3.5990438
171.2104 79.765846 3.3348274
172.17461 79.415291 3.0491035
173.13879 79.268089 2.9667513
174.1031 79.397072 3.1606226
175.06731 79.816513 3.6449711
176.03149 80.134033 4.02742
176.9958 80.272476 4.2308264
177.96001 80.173607 4.1969433
178.92419 80.091507 4.1798539
179.8885 80.094543 4.2479353
180.85271 80.18969 4.4081478
181.81689 80.363892 4.6474409
182.7812 80.586227 4.9349008
183.74541 80.87072 5.284543
184.70959 81.29731 5.7763066
185.6739 81.665749 6.2099543
186.63811 81.997139 6.6065755
187.60229 82.309502 6.9841957
188.5666 82.557533 7.2975235
189.53081 82.680763 7.4860663
190.495 82.650108 7.5207548
191.4593 82.439613 7.3756399
192.42349 82.196297 7.1977243
193.3877 81.957253 7.0241132
194.35201 81.770958 6.9032879
195.31619 81.524071 6.7218866
196.2804 81.154846 6.4181824
197.24471 80.620354 5.9492493
198.20889 79.928871 5.3233418
199.1731 79.242813 4.7028923
200.13741 78.522797 4.0485215
201.10159 77.680183 3.2715771
202.0658 76.982361 2.6394553
203.03011 76.477341 2.2001719
203.99429 76.229103 2.0176964
204.9585 76.11937 1.9737525
205.92281 75.969177 1.8893876
206.88699 75.779587 1.7656493
207.8512 75.572144 1.6240911
208.81551 75.33831 1.4561796
209.77969 75.09005 1.2738643
210.7439 74.783539 1.0333328
211.70821 74.510162 0.8259716
212.67239 74.306213 0.68806267
213.6366 74.164207 0.61212873
214.60091 74.075043 0.58907461
215.56509 74.005371 0.58553839
216.5293 73.964302 0.61063719
217.49361 73.979118 0.69165945
218.45779 74.008247 0.78701878
219.422 74.05687 0.90190506
220.38631 74.132408 1.0437465
221.35049 74.232361 1.2100258
222.3147 74.348923 1.3929496
223.27901 74.48307 1.5934963
224.24319 74.643913 1.8207636
225.2074 74.769333 2.0126414
226.17171 74.852867 2.1626742
227.13589 74.877113 2.2534416
228.1001 74.874763 2.3176475
229.06441 74.857178 2.3666587
230.02859 74.7957 2.3718011
230.9928 74.69194 2.3346961
231.95711 74.687843 2.3972943
232.9213 74.819397 2.5955665
233.8855 75.234177 3.0771008
234.84979 75.588127 3.4978435
235.814 75.844681 3.821218
236.7782 75.945808 3.9891977
237.74249 75.968727 4.0790091
238.7067 76.039337 4.2165389
239.6709 76.160027 4.4041805
240.63519 76.346687 4.6578355
241.5994 76.489639 4.8678064
242.5636 76.574966 5.0201864
243.52789 76.568222 5.0805345
244.4921 76.575058 5.1544895
245.4563 76.654297 5.3008823
246.42059 76.835693 5.5494719
247.3848 77.1054 5.8863993
248.349 77.362457 6.21071
249.31329 77.583252 6.4987979
250.2775 77.746658 6.7295251
251.2417 77.910271 6.9604926
252.20599 78.102913 7.2205286
253.1702 78.404663 7.5897012
254.1344 78.716179 7.9686708
255.09869 78.910629 8.2306166
256.0629 78.91626 8.303771
257.02719 78.611908 8.0669804
257.99139 78.485809 8.0084715
258.9556 78.561447 8.1517315
259.91989 78.96611 8.6240597
260.88409 79.428253 9.1538906
261.8483 79.880302 9.6736631
262.81259 80.334389 10.195515
263.77679 80.773087 10.702002
264.741 81.142021 11.138761
265.70529 81.403709 11.468315
266.66949 81.338257 11.470752
267.6337 81.473183 11.673603
268.59799 81.820969 12.089354
269.56219 82.590843 12.92722
270.5264 83.476227 13.880627
271.49069 84.271019 14.743483
272.4549 84.945602 15.486161
273.4191 85.47934 16.08802
274.38339 86.013519 16.690365
275.3476 86.535133 17.280172
276.3118 86.947021 17.760284
277.27609 87.431503 18.31303
278.2403 88.011063 18.96088
279.2045 88.816902 19.835045
280.16879 89.710892 20.797394
281.133 90.469116 21.624008
282.0972 91.027046 22.250362
283.06149 91.196777 22.488556
284.0257 91.539787 22.900051
284.9899 92.055687 23.484474
285.95419 92.985657 24.483006
286.9184 93.918533 25.484463
287.8826 94.742477 26.377029
288.84689 95.363838 27.067047
289.8111 95.824417 27.59631
290.7753 96.361504 28.202114
291.73959 96.980026 28.889389
292.7038 97.841042 29.819187
293.668 98.61422 30.661175
294.63229 99.320213 31.436024
295.5965 100.0108 32.195492
296.5607 100.6262 32.879795
297.52499 101.1277 33.450245
298.4892 101.4979 33.88942
299.4534 101.7261 34.186619
300.41769 101.8507 34.380268
301.3819 101.8626 34.461239
302.3461 101.6696 34.337334
303.31039 101.4434 34.180271
304.2746 101.1986 34.004631
305.2388 100.9566 33.831825
306.20309 100.7146 33.659058
307.1673 100.4652 33.47892
308.1315 100.2201 33.303104
309.09579 99.985283 33.137611
310.06 99.690773 32.912449
311.0242 99.303047 32.594101
311.98849 98.86351 32.223984
312.9527 98.289352 31.719265
313.9169 97.569237 31.068619
314.8812 96.581238 30.150131
315.8454 95.445908 29.084332
316.8096 94.395592 28.103577
317.7739 93.455872 27.233459
318.7381 92.651253 26.498463
319.7023 91.955009 25.871868
320.6666 91.365517 25.352066
321.6308 91.09066 25.146919
322.595 90.746063 24.872063
323.5593 90.196678 24.392456
324.5235 89.249496 23.515072
325.4877 88.005173 22.34058
326.452 86.903053 21.308323
327.4162 86.001747 20.476906
328.3804 85.473541 20.018612
329.3447 84.959343 19.574366
330.3089 84.433098 19.118092
331.2731 83.886192 18.64119
332.2374 83.329811 18.154842
333.2016 82.774101 17.669193
334.1658 82.215431 17.180609
335.1301 81.656113 16.69141
336.0943 81.119911 16.225349
337.0585 80.604279 15.779887
338.0228 80.093597 15.33941
338.987 79.581383 14.89742
339.9512 79.056908 14.443196
340.9155 78.509987 13.966562
341.8797 77.985359 13.512239
342.8439 77.525253 13.122467
343.8082 77.13945 12.80703
344.7724 76.818626 12.556593
345.7366 76.55246 12.36084
346.7009 76.316933 12.195759
347.6651 76.258293 12.207584
348.6293 76.119987 12.139771
349.5936 75.908447 11.998754
350.5578 75.504799 11.665648
351.522 75.060211 11.291631
352.4863 74.691368 10.993387
353.4505 74.465446 10.838087
354.4147 74.410782 10.854067
355.379 74.287567 10.801529
356.3432 74.076447 10.661102
357.3074 73.555832 10.211207
358.2717 73.121628 9.8477535
359.2359 72.809822 9.6067171
360.2001 72.72023 9.5879192
361.1644 72.732826 9.671339
362.1286 72.730087 9.7394419
363.0928 72.677147 9.7573652
364.0571 72.562393 9.7135067
365.0213 72.467216 9.6892414
365.9855 72.406067 9.699028
366.9498 72.49041 9.8543358
367.914 72.508301 9.9432087
368.8782 72.423576 9.9294872
369.8425 72.114967 9.6919127
370.8067 71.721497 9.3694925
371.7709 71.397659 9.1167269
372.7352 71.197304 8.9874706
373.6994 71.142273 9.0035572
374.6636 71.121849 9.0542717
375.6279 71.112823 9.1164103
376.5921 71.20079 9.2755594
377.5563 71.233231 9.3792019
378.5206 71.189682 9.4068832
379.4848 70.946373 9.2348175
380.44901 70.637421 8.9971323
381.4133 70.407753 8.8387556
382.3775 70.322678 8.8249865
383.34171 70.416946 8.9905815
384.306 70.530518 9.1755066
385.2702 70.642311 9.3586664
386.23441 70.724373 9.5121145
387.1987 70.800323 9.6594782
388.1629 70.859467 9.7900467
389.12711 70.94902 9.9510431
390.0914 71.02124 10.094734
391.0556 71.034203 10.179178
392.01981 70.939049 10.155524
392.9841 70.714104 10.002106
393.9483 70.555588 9.9151278
394.91251 70.496567 9.9276619
395.8768 70.677933 10.180607
396.841 70.834442 10.408709
397.80521 70.919441 10.565316
398.7695 70.895309 10.612817
399.7337 70.817574 10.606724
400.69791 70.742561 10.603372
401.6622 70.670509 10.603002
402.6264 70.599442 10.603628
403.59061 70.593353 10.66925
404.5549 70.663132 10.81076
405.5191 70.940353 11.159722
406.48331 71.160088 11.451215
407.4476 71.269577 11.632483
408.4118 71.128616 11.563312
409.37601 70.908737 11.415236
410.3403 70.746628 11.324951
411.3045 70.725601 11.375755
412.26871 70.846092 11.568096
413.233 70.974892 11.768763
414.1972 71.080482 11.94623
415.16141 71.203339 12.140976
416.1257 71.254547 12.264095
417.0899 71.219254 12.300718
418.05411 70.91906 12.072456
419.0184 70.600487 11.825833
419.9826 70.42334 11.720643
420.94681 70.549042 11.918315
421.9111 70.925598 12.366859
422.87531 71.253922 12.767178
423.83951 71.412468 12.997729
424.8038 71.279068 12.936355
425.76801 71.118896 12.848213
426.73221 71.029083 12.830441
427.6965 71.029449 12.902868
428.66071 71.078133 13.023613
429.62491 71.145126 13.162682
430.5892 71.293167 13.382814
431.55341 71.49543 13.657173
432.51761 71.656212 13.890061
433.4819 71.733101 14.039072
434.44611 71.663033 14.041129
435.41031 71.58474 14.034971
436.3746 71.518867 14.041251
437.33881 71.410347 14.004883
438.30301 71.316071 13.982769
439.2673 71.273407 14.012283
440.23151 71.40506 14.216116
441.19571 71.631279 14.514524
442.16 71.81147 14.766916
443.12421 71.856697 14.884347
444.0885 71.723793 14.823661
445.0527 71.559357 14.731442
446.01691 71.412773 14.657085
446.9812 71.320198 14.636749
447.9454 71.238708 14.6275
448.90961 71.168709 14.629745
449.8739 71.106499 14.639795
450.8381 71.05896 14.664514
451.80231 71.026207 14.704025
452.7666 70.989937 14.740032
453.7308 70.950882 14.773252
454.69501 70.957077 14.851728
455.6593 71.054527 15.021469
456.6235 71.388863 15.428096
457.58771 71.671753 15.78328
458.552 71.765312 15.949145
459.5162 71.441139 15.697274
460.48041 70.998718 15.32716
461.4447 70.673172 15.073931
462.40891 70.614403 15.087473
463.37311 70.786057 15.331445
464.3374 71.026642 15.644357
465.30161 71.260681 15.950718
466.26581 71.49649 16.25885
467.2301 71.676964 16.511658
468.19431 71.769043 16.676067
469.15851 71.71331 16.692663
470.1228 71.638733 16.690424
471.08701 71.623421 16.747444
472.05121 71.702507 16.898865
473.0155 71.855637 17.124338
473.97971 72.04171 17.382746
474.94391 72.214157 17.627529
475.9082 72.350067 17.835783
476.87241 72.508293 18.066345
477.83661 72.735474 18.36586
478.8009 73.18634 18.889069
479.76511 73.628609 19.403671
480.72931 73.937767 19.785164
481.6936 73.967339 19.887074
482.65781 73.887497 19.879562
483.62201 73.874237 19.938633
484.5863 74.064651 20.20138
485.55051 74.437157 20.64621
486.51471 74.824539 21.105915
487.479 75.088577 21.442278
488.44321 75.109787 21.535805
489.40741 75.113792 21.612122
490.3717 75.292549 21.863197
491.33591 75.850471 22.493423
492.30011 76.516533 23.231789
493.2644 77.087959 23.875523
494.22861 77.413757 24.273613
495.19281 77.57444 24.506584
496.1571 77.737457 24.741894
497.12131 78.006607 25.083324
498.08551 78.394508 25.543499
499.0498 78.832138 26.053406
500.01401 79.266144 26.559673
500.97821 79.673721 27.039509
501.9425 80.093971 27.532017
502.90671 80.556427 28.066715
503.87091 81.059387 28.641914
504.83521 81.609589 29.264355
505.79941 82.216019 29.943008
506.76361 82.930092 30.729294
507.72791 83.734123 31.605541
508.69211 84.533974 32.477592
509.65631 85.239388 33.255199
510.62061 85.804832 33.892834
511.58481 86.326508 34.486687
512.54907 86.903839 35.136189
513.51331 87.62439 35.928898
514.47748 88.381111 36.757767
515.44177 89.082741 37.53154
516.40601 89.654716 38.175648
517.37018 90.15271 38.745754
518.33447 90.68486 39.350021
519.29871 91.324364 40.061626
520.26288 92.069229 40.878574
521.22717 92.856911 41.738342
522.19141 93.634079 42.587578
523.15558 94.402046 43.427593
524.11987 95.14164 44.239235
525.08411 95.831009 45.000637
526.04828 96.595757 45.837402
527.01257 97.328033 46.641689
527.97681 97.880608 47.266258
528.94098 98.103706 47.561333
529.90527 98.051018 47.580616
530.86951 97.919998 47.521549
531.83368 97.894409 47.567902
532.79797 98.02079 47.766212
533.76221 98.153099 47.970432
534.72638 98.113678 48.002907
535.69067 97.837624 47.79874
536.65491 97.363373 47.396358
537.61908 96.794563 46.899399
538.58337 96.078346 46.255024
539.54761 95.262238 45.510738
540.51178 94.4412 44.761505
541.47607 93.679489 44.07159
542.44031 92.987053 43.450928
543.40448 92.323593 42.859219
544.36877 91.641281 42.248657
545.33301 90.915482 41.594582
546.29718 90.163811 40.914612
547.26147 89.421387 40.243881
548.22571 88.687683 39.581848
549.18988 87.955971 38.921787
550.15417 87.217163 38.25462
551.11841 86.48941 37.59848
552.08258 85.770752 36.95142
553.04688 85.051201 36.303452
554.01111 84.288948 35.612759
554.97528 83.480522 34.875866
555.93958 82.689636 34.156506
556.90381 82.016472 33.554844
557.86798 81.52475 33.134598
558.83228 81.119347 32.800659
559.79651 80.590027 32.342777
560.76068 79.722313 31.546478
561.72498 78.682518 30.578083
562.68921 77.87072 29.837662
563.65338 77.467484 29.505775
564.61768 77.400253 29.50988
565.58191 77.354378 29.535316
566.54608 77.113388 29.365608
567.51038 76.67363 28.99712
568.47461 76.223351 28.618084
569.43878 76.006317 28.472267
570.40308 76.085808 28.622955
571.36731 76.355164 28.963486
572.33148 76.537483 29.216949
573.29578 76.593674 29.344269
574.26001 76.53801 29.359703
575.22418 76.425262 29.318027
576.18848 76.201591 29.165413
577.15271 75.892197 28.927044
578.11688 75.6474 28.753242
579.08118 75.565498 28.742321
580.04541 75.653343 28.901115
581.00958 75.832153 29.150845
581.97388 76.010353 29.399948
582.93811 76.192383 29.652847
583.90228 76.380959 29.912262
584.86658 76.564163 30.16629
585.83081 76.737999 30.410915
586.79498 76.908447 30.652122
587.75928 77.122238 30.936653
588.72351 77.364517 31.249638
589.68768 77.6278 31.583595
590.65198 77.925179 31.95163
591.61621 78.286148 32.383221
592.58038 78.724373 32.892036
593.54468 79.191437 33.429668
594.50891 79.59922 33.907986
595.47308 79.900162 34.279434
596.43738 80.142242 34.591991
597.40161 80.544357 35.064552
598.36578 81.162498 35.753105
599.33008 82.018806 36.679802
600.29431 82.857132 37.588482
601.25848 83.700737 38.502411
602.22278 84.550308 39.422276
603.18701 85.357658 40.299885
604.15118 86.063461 41.075916
605.11548 86.635239 41.717896
606.07971 87.179688 42.332508
607.04388 87.796097 43.019051
608.00818 88.463783 43.75684
608.97241 89.220581 44.583702
609.93658 90.229057 45.662212
610.90088 91.635872 47.139034
611.86511 93.513634 49.086761
612.82928 95.07872 50.721779
613.79358 96.127831 51.840794
614.75781 96.529053 52.311882
615.72198 97.162453 53.01511
616.68628 98.316078 54.238541
617.65051 100.0935 56.08572
618.61469 102.1199 58.18185
619.57898 104.0674 60.199043
620.54321 105.8907 62.092003
621.50739 107.6668 63.937717
622.47168 109.5973 65.937805
623.43591 111.6878 68.097855
624.40009 113.9409 70.420464
625.36438 116.2585 72.807541
626.32861 118.6247 75.243187
627.29279 121.0252 77.713081
628.25708 123.6307 80.387947
629.22131 126.5104 83.336975
630.18549 129.69791 86.593765
631.14978 133.04469 90.009804
632.11401 136.41299 93.447319
633.07819 139.7049 96.808388
634.04248 143.04939 100.22203
635.00671 146.6888 103.93053
635.97089 150.6537 107.96449
636.93518 154.9297 112.3095
637.89941 159.4332 116.88198
638.86359 164.22459 121.7423
639.82788 169.47121 127.05782
640.79211 174.66589 132.32137
641.75629 179.7836 137.50789
642.72058 184.6105 142.40356
643.68481 189.6664 147.5282
644.64899 195.11011 153.0406
645.61328 201.16161 159.16075
646.57751 207.35899 165.42674
647.54169 213.31441 171.45073
648.50598 219.02341 177.22826
649.47021 224.5143 182.78763
650.43439 229.9409 188.28268
651.39868 235.3085 193.71869
652.36292 240.63139 199.10992
653.32709 245.81641 204.36327
654.29138 250.9326 209.54773
655.25562 256.396 215.07935
656.21979 261.10629 219.85782
657.18408 264.96561 223.78528
658.14832 267.83749 226.72525
659.11249 270.05331 229.00912
660.07678 271.77441 230.79822
661.04102 273.01279 232.10455
662.00519 273.81039 232.97009
662.96948 274.2124 233.43996
663.93372 274.24951 233.54489
664.89789 273.85571 233.21889
665.86218 272.70999 232.14088
666.82642 270.7002 230.19879
667.79059 267.6297 227.19591
668.75488 264.33691 223.97073
669.71912 260.9404 220.64177
670.68329 257.30939 217.07823
671.64758 253.57449 213.41081
672.61182 249.65109 209.55481
673.57599 245.5193 205.49037
674.54028 241.1821 201.22047
675.50452 236.68649 196.79214
676.46881 232.0119 192.18475
677.43298 227.22141 187.46143
678.39722 222.42661 182.73375
679.36151 217.5793 177.95351
680.32568 212.6929 173.13412
681.28992 207.9384 168.44658
682.25421 203.3398 163.91492
683.21838 198.9469 159.58888
684.18262 194.57739 155.28619
685.14691 190.1646 150.94016
686.11108 185.5892 146.43149
687.07532 181.0683 141.97725
688.03961 176.6456 137.62117
689.00378 172.25661 133.29874
689.96802 168.0136 129.12224
690.93231 163.99969 125.17481
691.89648 160.4529 121.69442
692.86072 157.17149 118.47937
693.82501 153.6571 115.0313
694.78918 149.7657 111.20614
695.75342 145.42509 106.93174
696.71771 141.224 102.7968
697.68188 137.21561 98.8545
698.64612 133.47771 95.182648
699.61041 129.85001 91.620941
700.57458 126.3247 88.161568
701.53882 122.8293 84.732056
702.50311 119.505 81.473587
703.46729 116.3873 78.421661
704.43152 113.6423 75.742386
705.39581 110.9931 73.158859
706.35999 108.2675 70.498863
707.32422 105.2589 67.555824
708.28851 102.1272 64.489624
709.25269 99.183884 61.611755
710.21692 96.513908 59.007175
711.18121 94.136124 56.694736
712.14539 91.870216 54.494102
713.10962 89.703583 52.392696
714.07391 87.691887 50.446175
715.03809 85.702682 48.522079
716.00232 83.723587 46.60804
716.96661 81.637878 44.587341
717.93079 79.657379 42.67178
718.89502 77.822868 40.902157
719.85931 76.268227 39.41235
720.82349 74.806931 38.01582
721.78772 73.351288 36.624889
722.75201 71.794594 35.132862
723.71619 70.225601 33.62846
724.68042 68.773407 32.240807
725.64471 67.47435 31.006237
726.60889 66.315453 29.911758
727.57312 65.220154 28.880825
728.53741 64.189568 27.914547
729.50159 63.273369 27.062592
730.46582 62.375759 26.229172
731.43011 61.487049 25.404594
732.39429 60.564838 24.546444
733.35852 59.667919 23.713535
734.32281 58.784931 22.894501
735.28699 57.970921 22.144375
736.25122 57.138779 21.37606
737.21552 56.26754 20.568594
738.17969 55.19788 19.562637
739.14392 54.1301 18.558502
740.10822 53.246899 17.738888
741.07239 52.771019 17.326529
742.03662 52.570412 17.189384
743.00092 52.28294 16.965317
743.96509 51.72805 16.473763
744.92932 50.87384 15.682827
745.89362 50.02969 14.901896
746.85779 49.28194 14.217295
747.82202 48.62476 13.623203
748.78632 48.07753 13.139006
749.75049 47.648151 12.772587
750.71472 47.55368 12.741016
751.67902 47.461552 12.711729
752.64319 47.267052 12.580002
753.60742 46.819118 12.194778
754.57172 46.30381 11.742123
755.53589 45.83535 11.336243
756.50012 45.500771 11.064182
757.46442 45.234581 10.860451
758.42859 44.953091 10.641348
759.39282 44.619419 10.370003
760.35712 44.241959 10.05481
761.32129 43.850788 9.725831
762.28552 43.45591 9.3930855
763.24982 43.055618 9.0548649
764.21399 42.65728 8.718523
765.17822 42.25827 8.3814497
766.14252 41.829979 8.0150328
767.10669 41.431412 7.678266
768.07092 41.093788 7.4023809
769.03522 40.863739 7.2340078
769.99939 40.67886 7.1107306
770.96362 40.512058 7.0054688
771.92792 40.386009 6.9408965
772.89209 40.265968 6.8822579
773.85632 40.118641 6.7962694
774.82062 39.884151 6.6230564
775.78479 39.60717 6.4072757
776.74902 39.366661 6.2279038
777.71332 39.25573 6.1780462
778.67749 39.250259 6.2335739
779.64172 39.20755 6.2517986
780.60602 39.003559 6.1086779
781.57019 38.606949 5.7728615
782.53442 38.20562 5.4322619
783.49872 37.94207 5.2293773
784.46289 37.896561 5.2444563
785.42712 37.903831 5.3122506
786.39142 37.830601 5.2994785
787.35559 37.557419 5.086678
788.31982 37.240398 4.8299742
789.28412 37.003429 4.6532559
790.24829 36.945049 4.6550488
791.21252 36.964489 4.7345963
792.17682 36.951069 4.7812181
793.14099 36.83057 4.7206831
794.10522 36.645329 4.5953388
795.06952 36.47427 4.4841118
796.03369 36.40152 4.4711146
796.99792 36.403938 4.5332193
797.96222 36.37011 4.5590105
798.92639 36.184311 4.4327526
799.89063 35.831409 4.1393251
800.85492 35.46159 3.8289118
801.81909 35.213039 3.639689
802.78333 35.126678 3.6125877
803.74762 35.10601 3.6511118
804.71179 35.04644 3.6506546
805.67603 34.928501 3.5917604
806.64032 34.77483 3.4970658
807.60449 34.616619 3.3977518
808.56873 34.42165 3.2616112
809.53302 34.226181 3.1249022
810.49719 34.085732 3.0431325
811.46143 34.053902 3.0699136
812.42572 34.093731 3.1682847
813.38989 34.120911 3.2539258
814.35413 34.093349 3.2847567
815.31842 34.014931 3.2646606
816.28259 33.91341 3.2213819
817.24683 33.81419 3.1803339
818.21112 33.71946 3.1437056
819.17529 33.609581 3.0918484
820.13953 33.441761 2.9819794
821.10382 33.194698 2.7927973
822.06799 32.943439 2.5993378
823.03223 32.793041 2.5066681
823.99652 32.77169 2.5429752
824.96069 32.840149 2.6690102
825.92493 32.92495 2.811316
826.88922 33.068569 3.0123696
827.85339 33.2332 3.2343526
828.81763 33.301941 3.360374
829.78192 33.219261 3.3349035
830.74609 33.020851 3.1936202
831.71033 32.82827 3.0580938
832.67462 32.679192 2.9659986
833.63879 32.566639 2.9103463
834.60303 32.443588 2.8441238
835.56732 32.275002 2.7322929
836.53149 32.061741 2.5757051
837.49573 31.854401 2.4249651
838.46002 31.67705 2.304142
839.42419 31.52849 2.2120266
840.38843 31.42367 2.1635778
841.35272 31.397699 2.1939056
842.31689 31.471741 2.3241618
843.28113 31.581169 2.4897316
844.24542 31.60503 2.5696607
845.20959 31.512051 2.5326653
846.17383 31.34078 2.4173052
847.13812 31.2194 2.3517623
848.10229 31.162609 2.3507233
849.06653 31.164249 2.4080422
850.03082 31.16783 2.4672265
850.995 31.20125 2.5561669
851.95923 31.264879 2.6752415
852.92352 31.25489 2.720624
853.88782 31.127831 2.6488571
854.85199 30.87776 2.4539945
855.81622 30.66436 2.295728
856.78052 30.54236 2.2287867
857.74469 30.52059 2.2619894
858.70892 30.51322 2.3095174
859.67322 30.470381 2.3215013
860.63739 30.382311 2.2881687
861.60162 30.27928 2.2397995
862.56592 30.18067 2.195776
863.53009 30.07811 2.1477165
864.49432 30.005989 2.1300206
865.45862 30.03298 2.2113605
866.42279 30.20175 2.4343932
867.38702 30.454121 2.7409511
868.35132 30.58848 2.9294209
869.31549 30.57649 2.9714558
870.27972 30.42477 2.8736837
871.24402 30.258039 2.7608244
872.20819 30.065029 2.621599
873.17242 29.824711 2.434989
874.13672 29.659599 2.323509
875.10089 29.58457 2.3020241
876.06512 29.629061 2.3999827
877.02942 29.66482 2.4891322
877.99359 29.70315 2.5807657
878.95782 29.78245 2.7132919
879.92212 29.793631 2.777622
880.88629 29.68688 2.723933
881.85052 29.36594 2.455977
882.81482 29.071581 2.2145243
883.77899 28.927641 2.1234031
884.74323 29.01144 2.2599435
885.70752 29.166 2.4671667
886.67169 29.257339 2.6110809
887.63593 29.279949 2.686188
888.60022 29.245979 2.7046371
889.56439 29.17153 2.6825185
890.52863 29.035971 2.5992122
891.49292 28.851021 2.4664366
892.45709 28.68602 2.3535216
893.42133 28.51664 2.2361486
894.38562 28.33556 2.1069975
895.34979 28.243839 2.067117
896.31403 28.29104 2.1660795
897.27832 28.58861 2.5153313
898.24249 28.74769 2.7260053
899.20673 28.755381 2.7852104
900.17102 28.45019 2.5314546
901.13519 28.19389 2.3265011
902.09943 27.975901 2.1597793
903.06372 27.8046 2.0396662
904.02789 27.66567 1.9518352
904.99213 27.56472 1.9019041
905.95642 27.54631 1.9344335
906.92059 27.538759 1.9777327
907.88483 27.52446 2.0142031
908.84912 27.489111 2.0295448
909.81329 27.45155 2.0425839
910.77753 27.42045 2.0620055
911.74182 27.428619 2.1206155
912.70599 27.432249 2.1745961
913.67023 27.38973 2.1823483
914.63452 27.24815 2.0909581
915.59869 27.05579 1.948699
916.56293 26.9098 1.8527284
917.52722 26.840969 1.8338375
918.49139 26.83873 1.8814478
919.45563 26.828939 1.9214263
920.41992 26.802311 1.9444861
921.38409 26.75499 1.9467626
922.34833 26.711571 1.9528608
923.31262 26.683769 1.9744954
924.27679 26.69685 2.0369215
925.24103 26.671989 2.061326
926.20532 26.59877 2.0372901
927.16949 26.425249 1.9128623
928.13373 26.267321 1.8039455
929.09802 26.12985 1.7154059
930.06219 26.01605 1.6504455
931.02643 25.929279 1.612433
931.99072 25.876381 1.608211
932.9549 25.866859 1.6472759
933.91913 25.873911 1.7028317
934.88342 25.883551 1.7608943
935.8476 25.90794 1.8336153
936.81183 25.93359 1.907515
937.77612 25.96307 1.9851632
938.7403 26.036501 2.1066716
939.70453 26.09848 2.216646
940.66882 26.10586 2.2719386
941.633 25.97801 2.1919107
942.59723 25.79475 2.0563905
943.56152 25.64847 1.957768
944.5257 25.56522 1.9220843
945.48993 25.540661 1.9450092
946.45422 25.562611 2.0143604
947.4184 25.684071 2.1831307
948.38263 25.880541 2.4268289
949.34692 26.02401 2.6174428
950.3111 26.041559 2.6820462
951.27533 25.92602 2.6134779
952.23962 25.82406 2.5584073
953.2038 25.79236 2.573504
954.16803 25.856279 2.6841373
955.13232 25.90517 2.7796597
956.0965 25.911289 2.8323183
957.06073 25.86928 2.8367658
958.02502 25.786791 2.8006508
958.9892 25.647739 2.7078817
959.95343 25.3585 2.4648409
960.91772 25.10778 2.2602379
961.8819 24.966801 2.1652825
962.84613 25.040739 2.285162
963.81042 25.16036 2.4506412
964.7746 25.25947 2.5955169
965.73877 25.35891 2.7406366
966.70313 25.43383 2.8611596
967.6673 25.476231 2.9490676
968.63147 25.44953 2.9677877
969.59583 25.3958 2.9594014
970.56 25.337839 2.9466896
971.52417 25.25618 2.9101927
972.48853 25.17132 2.8704174
973.4527 25.1057 2.8497865
974.41687 25.07506 2.8640501
975.38123 25.078039 2.9118547
976.3454 25.11105 2.9895954
977.30957 25.213209 3.1363988
978.27393 25.3498 3.3175554
979.2381 25.449261 3.4614868
980.20227 25.46393 3.5205402
981.16663 25.40416 3.5050755
982.1308 25.31385 3.4589772
983.09497 25.20442 3.393671
984.05933 25.07934 3.3126371
985.0235 24.96019 3.2374377
985.98767 24.8547 3.1758122
986.95203 24.760679 3.125577
987.9162 24.680361 3.0889494
988.88037 24.624559 3.0767517
989.84473 24.602381 3.0980985
990.8089 24.583151 3.122299
991.77307 24.539261 3.1217525
992.73743 24.45578 3.0815365
993.7016 24.374519 3.0434456
994.66577 24.329201 3.0412099
995.63013 24.32818 3.0831938
996.5943 24.35055 3.1484723
997.55847 24.38517 3.225915
998.52283 24.479099 3.3625875
999.487 24.56951 3.495646
1000.451 24.580589 3.5492792
1001.415 24.35758 3.3687365
1002.38 24.075951 3.1295319
1003.344 23.972349 3.0682228
1004.308 24.25391 3.3919892
1005.272 24.696301 3.8764982
1006.237 24.98105 4.2033248
1007.201 24.98712 4.2513385
1008.165 24.81661 4.1226869
1009.129 24.650961 3.9988105
1010.094 24.48259 3.872165
1011.058 24.33185 3.7630217
1012.022 24.251511 3.7241919
1012.986 24.332529 3.8466351
1013.951 24.526939 4.0824227
1014.915 24.67252 4.2692513
1015.879 24.66457 4.3024654
1016.843 24.529499 4.2084689
1017.807 24.400551 4.1205077
1018.772 24.353621 4.1145191
1019.736 24.37748 4.1791935
1020.7 24.398991 4.2414308
1021.664 24.366449 4.2495289
1022.629 24.282419 4.2060943
1023.593 24.194269 4.1584091
1024.557 24.14426 4.148778
1025.521 24.138399 4.1832075
1026.486 24.1469 4.2319536
1027.45 24.132179 4.257349
1028.4139 24.084339 4.2495389
1029.3781 24.03643 4.2415781
1030.343 24.036051 4.2810946
1031.307 24.096331 4.3811436
1032.271 24.17589 4.5003843
1033.235 24.209949 4.574039
1034.199 24.182831 4.5864282
1035.1639 24.130831 4.5738888
1036.1281 24.126181 4.6085777
1037.092 24.188881 4.710525
1038.056 24.28854 4.8493443
1039.021 24.35141 4.9513273
1039.985 24.377741 5.016644
1040.949 24.36412 5.0419235
1041.913 24.295561 5.0121765
1042.877 24.12993 4.885272
1043.842 23.897129 4.6911535
1044.806 23.77634 4.6089168
1045.77 23.81999 4.6910315
1046.734 24.01335 4.9227695
1047.699 24.12372 5.0714707
1048.663 24.11207 5.0980253
1049.627 23.97266 4.9967337
1050.5909 23.884121 4.9462256
1051.556 23.86216 4.9622526
1052.52 23.91564 5.0535908
1053.484 23.989149 5.1648712
1054.448 24.105909 5.3193164
1055.413 24.300949 5.5519924
1056.377 24.38904 5.6775947
1057.3409 24.327299 5.6532788
1058.3051 24.04174 5.4050636
1059.27 23.83284 5.2334528
1060.234 23.740101 5.1778784
1061.198 23.82155 5.2964072
1062.162 23.89152 5.4033685
1063.126 23.935369 5.4841247
1064.0909 23.965099 5.5507116
1065.0551 23.938959 5.5613093
1066.019 23.83149 5.4904866
1066.983 23.562429 5.257987
1067.948 23.330351 5.0624194
1068.912 23.188829 4.9572864
1069.876 23.1982 5.0029588
1070.84 23.23185 5.072824
1071.8051 23.25424 5.1313848
1072.769 23.24441 5.157598
1073.733 23.240129 5.1892753
1074.697 23.251539 5.2365561
1075.661 23.281389 5.3021913
1076.626 23.31979 5.3763275
1077.59 23.36602 5.4581709
1078.554 23.45899 5.586668
1079.5179 23.539511 5.7026296
1080.483 23.571329 5.7698441
1081.447 23.501829 5.7356133
1082.411 23.40694 5.6759086
1083.375 23.343559 5.6476259
1084.34 23.320589 5.6597037
1085.304 23.32819 5.7022309
1086.2679 23.35779 5.7666721
1087.2321 23.45989 5.9035325
1088.197 23.57127 6.0496178
1089.161 23.616989 6.129921
1090.125 23.55633 6.1037602
1091.089 23.429831 6.0116754
1092.053 23.299561 5.9157338
1093.0179 23.12986 5.7803102
1093.9821 22.959681 5.6442928
1094.946 22.86133 5.5800147
1095.91 22.884661 5.6373324
1096.875 22.99419 5.7807984
1097.839 23.098961 5.9193859
1098.803 23.216021 6.0701776
1099.767 23.324089 6.2118931
1100.7321 23.362221 6.2836246
1101.696 23.283159 6.23804
1102.66 23.109739 6.098012
1103.624 22.94562 5.9671993
1104.589 22.78717 5.8420062
1105.553 22.643471 5.7314439
1106.517 22.565319 5.6863456
1107.481 22.597561 5.7515554
1108.4449 22.72945 5.9163289
1109.41 22.833321 6.0530357
1110.374 22.866119 6.1185493
1111.338 22.831341 6.1164007
1112.302 22.81909 6.1366963
1113.267 22.885639 6.2357402
1114.231 23.034189 6.4166675
1115.1949 23.105721 6.5204921
1116.1591 23.01549 6.4624743
1117.124 22.744221 6.2233629
1118.088 22.501261 6.0124435
1119.052 22.342251 5.8853908
1120.016 22.276779 5.8517923
1120.98 22.27203 5.8788323
1121.9449 22.341499 5.9800391
1122.9091 22.501699 6.1718645
1123.873 22.657591 6.3592939
1124.837 22.77277 6.5059276
1125.802 22.83172 6.5962806
1126.766 22.866541 6.6623888
1127.73 22.889191 6.7162418
1128.694 22.91114 6.7693124
1129.6591 22.918501 6.807745
1130.623 22.904539 6.8247375
1131.587 22.855021 6.8060894
1132.551 22.82493 6.8067865
1133.516 22.84502 6.8576126
1134.48 22.944361 6.9875746
1135.444 23.015539 7.0892911
1136.408 22.989639 7.0938473
1137.3719 22.80537 6.9399509
1138.337 22.646151 6.8110561
1139.301 22.625019 6.8201318
1140.265 22.82522 7.050458
1141.229 23.025909 7.2811899
1142.194 23.0959 7.3811703
1143.158 22.96224 7.2773886
1144.1219 22.802691 7.147634
1145.0861 22.72543 7.1000896
1146.051 22.779699 7.18402
1147.015 22.84271 7.2765799
1147.979 22.83819 7.3015261
1148.943 22.746229 7.2389498
1149.907 22.620741 7.1427646
1150.8719 22.487761 7.0390348
1151.8361 22.32118 6.9015975
1152.8 22.18269 6.7921643
1153.764 22.12553 6.7639809
1154.729 22.17767 6.8450437
1155.693 22.277349 6.973537
1156.657 22.3738 7.0987191
1157.621 22.46559 7.2191586
1158.5861 22.551201 7.3333716
1159.55 22.635981 7.4466391
1160.514 22.745899 7.5849648
1161.478 22.83584 7.7032318
1162.443 22.85111 7.7467756
1163.407 22.74555 7.6693792
1164.371 22.601219 7.5531321
1165.335 22.515791 7.4957066
1166.299 22.526911 7.5347481
1167.264 22.57419 7.609901
1168.228 22.57583 7.6393027
1169.192 22.495529 7.5866823
1170.156 22.39419 7.5129433
1171.121 22.35951 7.5058122
1172.085 22.42017 7.5939116
1173.049 22.524969 7.7260714
1174.0129 22.59812 7.8265028
1174.978 22.63718 7.8927946
1175.942 22.643721 7.9264555
1176.906 22.61417 7.9239464
1177.87 22.521021 7.8577585
1178.834 22.408369 7.7719889
1179.799 22.36504 7.7554893
1180.7629 22.421671 7.8388438
1181.7271 22.537319 7.9811392
1182.691 22.617121 8.0875053
1183.656 22.626789 8.1236858
1184.62 22.609711 8.1330147
1185.584 22.689619 8.2392511
1186.548 22.94586 8.5217409
1187.5129 23.27899 8.8810673
1188.4771 23.405701 9.0338736
1189.441 23.237789 8.8919754
1190.405 22.87883 8.5589514
1191.37 22.641741 8.347744
1192.334 22.562799 8.2945805
1193.298 22.60639 8.3638716
1194.262 22.64608 8.429183
1195.226 22.663839 8.4724865
1196.191 22.67087 8.5050125
1197.155 22.726879 8.5864105
1198.119 22.861971 8.7468119
1199.083 23.046841 8.9569149
1200.048 23.153431 9.088686
1201.012 23.157749 9.118083
1201.976 23.084841 9.0701752
1202.9399 23.04524 9.0554981
1203.905 23.055059 9.0901909
1204.869 23.102921 9.1628218
1205.833 23.127991 9.2125845
1206.797 23.120529 9.2297382
1207.761 23.08584 9.2195892
1208.726 23.057501 9.2157354
1209.6899 23.035419 9.2180405
1210.6541 23.01973 9.2266626
1211.618 23.00659 9.2377558
1212.583 22.98344 9.2387877
1213.547 22.959181 9.2386084
1214.511 22.990089 9.2935219
1215.475 23.112989 9.4403496
1216.4399 23.300529 9.6517668
1217.4041 23.407961 9.782979
1218.368 23.39991 9.7986288
1219.332 23.304371 9.7267151
1220.297 23.25182 9.6977386
1221.261 23.26108 9.7304735
1222.225 23.316891 9.8096848
1223.189 23.358021 9.8741388
1224.153 23.395861 9.9352283
1225.118 23.41905 9.9816198
1226.082 23.38699 9.9726601
1227.046 23.2344 9.8430948
1228.01 23.019899 9.6515446
1228.975 22.921869 9.5764141
1229.939 23.00675 9.6840973
1230.903 23.211941 9.9120159
1231.8669 23.376699 10.099428
1232.832 23.530291 10.275625
1233.796 23.649229 10.417068
1234.76 23.677139 10.46741
1235.724 23.525579 10.338208
1236.688 23.289221 10.124134
1237.653 23.1376 9.9947462
1238.6169 23.107519 9.9868031
1239.5811 23.152849 10.054201
1240.545 23.207689 10.131032
1241.51 23.297409 10.242691
1242.474 23.39089 10.358017
1243.438 23.447821 10.43672
1244.402 23.438271 10.44887
1245.3669 23.40106 10.433308
1246.3311 23.37846 10.432264
1247.295 23.366579 10.441866
1248.259 23.374981 10.471678
1249.224 23.41119 10.529245
1250.188 23.526609 10.665932
1251.152 23.646669 10.807184
1252.116 23.71056 10.892197
1253.08 23.624109 10.826796
1254.045 23.515091 10.738779
1255.009 23.47616 10.720757
1255.973 23.646879 10.912312
1256.937 23.84202 11.128216
1257.902 23.944361 11.251271
1258.866 23.855659 11.183193
1259.83 23.696911 11.044994
1260.7939 23.53495 10.903515
1261.759 23.28162 10.670618
1262.723 23.086599 10.495936
1263.687 23.03175 10.461355
1264.651 23.31741 10.767214
1265.615 23.64353 11.113464
1266.58 23.861891 11.351904
1267.5439 23.81986 11.329862
1268.5081 23.73527 11.265192
1269.472 23.710091 11.259863
1270.437 23.839701 11.409272
1271.401 23.98558 11.574862
1272.365 24.085739 11.694662
1273.329 24.13282 11.761314
1274.2939 24.13022 11.778236
1275.2581 24.078131 11.745583
1276.222 23.930389 11.617207
1277.186 23.774269 11.480381
1278.151 23.65156 11.376919
1279.115 23.58132 11.325838
1280.079 23.51848 11.282089
1281.043 23.42844 11.211071
1282.007 23.26034 11.061926
1282.972 23.12533 10.945824
1283.936 23.099199 10.938511
1284.9 23.230989 11.089052
1285.864 23.401239 11.277985
1286.829 23.54479 11.44017
1287.793 23.667999 11.581928
1288.757 23.760071 11.69248
1289.7209 23.81086 11.761683
1290.686 23.81082 11.780011
1291.65 23.78167 11.769141
1292.614 23.72716 11.732844
1293.578 23.64127 11.665102
1294.542 23.55057 11.592482
1295.507 23.4851 11.545044
1296.4709 23.453939 11.531832
1297.4351 23.428141 11.523917
1298.399 23.364969 11.478562
1299.364 23.2563 11.387661
1300.328 23.164089 11.313134
1301.292 23.13315 11.299814
1302.256 23.16337 11.347588
1303.2209 23.233459 11.435183
1304.1851 23.37348 11.592628
1305.149 23.578621 11.815128
1306.113 23.744471 11.99827
1307.078 23.793131 12.064177
1308.042 23.729401 12.017611
1309.006 23.61471 11.920018
1309.97 23.43008 11.752424
1310.934 23.19051 11.529823
1311.899 23.02146 11.3777
1312.863 23.04792 11.421003
1313.827 23.24288 11.63274
1314.791 23.39991 11.806486
1315.756 23.395941 11.819185
1316.72 23.25033 11.690163
1317.684 23.129789 11.586146
1318.6479 23.103121 11.575939
1319.613 23.1609 11.650135
1320.577 23.20727 11.71284
1321.541 23.20723 11.729073
1322.505 23.164709 11.702763
1323.469 23.150221 11.704422
1324.434 23.21307 11.783373
1325.3979 23.347099 11.933426
1326.3621 23.39254 11.994829
1327.326 23.30714 11.925329
1328.291 23.104271 11.738312
1329.255 22.94664 11.596458
1330.219 22.842871 11.508402
1331.183 22.786091 11.467275
1332.1479 22.73255 11.42934
1333.1121 22.688379 11.400703
1334.076 22.649929 11.377722
1335.04 22.588619 11.33182
1336.005 22.489759 11.248323
1336.969 22.370541 11.144392
1337.933 22.304911 11.093988
1338.897 22.317869 11.122114
1339.861 22.37776 11.19711
1340.826 22.383801 11.218214
1341.79 22.30374 11.153139
1342.754 22.181589 11.045917
1343.718 22.12454 11.003735
1344.683 22.18116 11.075177
1345.647 22.27397 11.182734
1346.611 22.26796 11.191414
1347.575 22.085979 11.024064
1348.54 21.866711 10.819383
1349.504 21.769409 10.736593
1350.468 21.87874 10.860378
1351.432 22.03574 11.031773
1352.396 22.118481 11.128851
1353.361 22.06958 11.094244
1354.325 21.99736 11.036244
1355.2889 21.956221 11.009268
1356.2531 21.98514 11.052294
1357.218 22.005301 11.086517
1358.182 21.99309 11.088296
1359.146 21.95771 11.066849
1360.11 21.88624 11.009254
1361.075 21.77767 10.914516
1362.0389 21.51502 10.665628
1363.0031 21.31728 10.481594
1363.967 21.19948 10.377443
1364.932 21.2402 10.431768
1365.896 21.28911 10.494214
1366.86 21.352791 10.571373
1367.824 21.436689 10.668695
1368.788 21.513229 10.758602
1369.7531 21.580481 10.83918
1370.717 21.65789 10.929846
1371.681 21.66577 10.950926
1372.645 21.579969 10.878271
1373.61 21.3857 10.697105
1374.574 21.206881 10.53132
1375.538 21.04574 10.38316
1376.502 20.905729 10.256075
1377.467 20.82128 10.184509
1378.431 20.823389 10.199436
1379.395 20.893829 10.282639
1380.359 20.960051 10.361567
1381.323 21.02256 10.436731
1382.288 21.066959 10.493743
1383.252 21.067619 10.506948
1384.2159 20.976101 10.427923
1385.1801 20.84973 10.313993
1386.145 20.76013 10.236792
1387.109 20.770081 10.259076
1388.073 20.81155 10.312825
1389.037 20.82568 10.339182
1390.002 20.764311 10.289999
1390.9659 20.685209 10.223021
1391.9301 20.62364 10.173523
1392.894 20.55088 10.112781
1393.859 20.51223 10.086107
1394.823 20.52923 10.115021
1395.787 20.752609 10.350262
1396.751 20.936649 10.546112
1397.715 20.98172 10.602942
1398.6801 20.771179 10.40412
1399.644 20.541731 10.186329
1400.608 20.39049 10.046692
1401.572 20.345221 10.012978
1402.537 20.321911 10.001183
1403.501 20.277361 9.9680853
1404.465 20.2031 9.9052267
1405.429 20.152491 9.8659687
1406.394 20.192881 9.9176731
1407.358 20.335211 10.071256
1408.322 20.426109 10.173357
1409.286 20.338369 10.096769
1410.25 20.085529 9.855031
1411.215 19.833 9.6135674
1412.179 19.641109 9.4326801
1413.1429 19.513981 9.3165073
1414.1071 19.462549 9.2759829
1415.072 19.57251 9.3968115
1416.036 19.779409 9.614521
1417 19.925871 9.7717428
1417.964 19.889059 9.7456427
1418.929 19.74234 9.6095982
1419.8929 19.627069 9.5049419
1420.8571 19.61091 9.4993525
1421.821 19.653219 9.5521822
1422.786 19.684549 9.5939951
1423.75 19.683411 9.603281
1424.714 19.661921 9.5921688
1425.678 19.640079 9.5806589
1426.642 19.630581 9.5814447
1427.6071 19.61834 9.5794506
1428.571 19.582451 9.5537529
1429.535 19.519899 9.5013447
1430.499 19.44334 9.4348841
1431.464 19.35261 9.3542137
1432.428 19.22427 9.2358799
1433.392 19.114969 9.1365376
1434.356 19.11853 9.150012
1435.321 19.261909 9.3032713
1436.285 19.42351 9.4746933
1437.249 19.459459 9.5204201
1438.213 19.35351 9.4242029
1439.177 19.24699 9.3273697
1440.142 19.285299 9.3753309
1441.106 19.479879 9.5795088
1442.0699 19.6369 9.7460823
1443.0341 19.64469 9.763382
1443.999 19.49939 9.6275558
1444.963 19.30147 9.4390564
1445.927 19.007521 9.1544828
1446.891 18.60248 8.7587748
1447.856 18.366711 8.5323048
1448.8199 18.438999 8.6138382
1449.7841 18.842461 9.0265026
1450.748 19.113171 9.3063717
1451.713 19.22995 9.4322767
1452.677 19.19943 9.4108305
1453.641 19.10519 9.3256207
1454.605 18.90979 9.1392078
1455.569 18.641609 8.8799725
1456.5341 18.461361 8.7086382
1457.498 18.389299 8.6454372
1458.462 18.39576 8.660717
1459.426 18.402069 8.6758041
1460.391 18.39567 8.6781502
1461.355 18.40098 8.6921549
1462.319 18.467911 8.7677383
1463.283 18.66135 8.9697905
1464.248 18.84317 9.1601906
1465.212 18.88434 9.2098904
1466.176 18.69593 9.0299711
1467.14 18.477631 8.8201199
1468.104 18.323351 8.6742477
1469.069 18.277269 8.6365433
1470.033 18.24334 8.6109419
1470.9969 18.19735 8.5732403
1471.9611 18.06905 8.4531898
1472.926 18.022289 8.4146461
1473.89 18.07955 8.4800758
1474.854 18.34816 8.7568169
1475.818 18.514919 8.9316673
1476.783 18.54422 8.9690285
1477.7469 18.389811 8.8226318
1478.7111 18.28842 8.7292166
1479.675 18.29533 8.7440624
1480.64 18.402451 8.8590889
1481.604 18.413931 8.8784285
1482.568 18.23934 8.7116585
1483.532 17.954269 8.4343719
1484.496 17.750509 8.2383556
1485.4611 17.691589 8.1871529
1486.425 17.707399 8.2106342
1487.389 17.722589 8.2334566
1488.353 17.756889 8.2753525
1489.318 17.774309 8.3003387
1490.282 17.753071 8.286623
1491.246 17.59417 8.1352062
1492.21 17.46022 8.0087061
1493.175 17.400709 7.9566164
1494.139 17.51503 8.0783138
1495.103 17.620609 8.1912327
1496.067 17.687241 8.2651682
1497.031 17.69631 8.2815065
1497.996 17.70598 8.2984171
1498.96 17.73704 8.3366737
1499.924 17.798281 8.405077
1500.8879 17.83922 8.4531441
1501.853 17.858231 8.4792538
1502.817 17.8515 8.4795799
1503.781 17.79101 8.4261122
1504.745 17.59289 8.2349796
1505.71 17.325661 7.9747114
1506.674 17.148899 7.8048697
1507.6379 17.17951 7.8423653
1508.6021 17.312281 7.9819884
1509.567 17.42128 8.0978117
1510.531 17.46954 8.1528549
1511.495 17.48069 8.1707563
1512.459 17.47447 8.1712532
1513.423 17.43099 8.1344576
1514.3879 17.386221 8.0963459
1515.3521 17.36171 8.0784531
1516.316 17.3827 8.1060286
1517.28 17.39263 8.1225109
1518.245 17.345341 8.0817499
1519.209 17.210541 7.9534378
1520.173 17.103649 7.8530021
1521.137 17.12167 7.8774471
1522.1021 17.270969 8.0331459
1523.066 17.401039 8.1695766
1524.03 17.413481 8.1883478
1524.994 17.324751 8.105916
1525.958 17.220409 8.0078411
1526.923 17.144609 7.9382834
1527.887 17.08363 7.8835082
1528.851 17.004589 7.8106422
1529.8149 16.847 7.6591964
1530.78 16.66539 7.4837065
1531.744 16.561729 7.3861294
1532.708 16.610161 7.4406128
1533.672 16.73591 7.5723858
1534.637 16.838249 7.6807237
1535.601 16.930201 7.7786384
1536.5649 16.99136 7.8457317
1537.5291 16.989241 7.8495178
1538.494 16.906281 7.7724395
1539.458 16.7978 7.669805
1540.422 16.707199 7.5850215
1541.386 16.62796 7.5115719
1542.35 16.582001 7.4713726
1543.3149 16.613871 7.5089798
1544.2791 16.72802 7.6288333
1545.243 16.83812 7.7446079
1546.207 16.8909 7.8030357
1547.172 16.88699 7.8047509
1548.136 16.865311 7.7886639
1549.1 16.829269 7.7581868
1550.064 16.77825 7.7127047
1551.0291 16.72645 7.6664205
1551.993 16.67206 7.6175132
1552.957 16.621861 7.5727696
1553.921 16.59831 7.5546484
1554.885 16.62171 7.5834503
1555.85 16.66227 7.6293912
1556.814 16.637609 7.6100807
1557.778 16.51969 7.4974842
1558.7419 16.36812 7.351212
1559.707 16.27183 7.2601986
1560.671 16.23852 7.2321348
1561.635 16.25206 7.250895
1562.599 16.32066 7.3246894
1563.564 16.486389 7.495594
1564.528 16.59437 7.6087189
1565.4919 16.544241 7.5637097
1566.4561 16.240351 7.2649145
1567.421 16.03022 7.0598588
1568.385 16.01058 7.0452642
1569.349 16.247829 7.2875342
1570.313 16.38406 7.4287615
1571.277 16.389561 7.4392352
1572.2419 16.26037 7.3149981
1573.2061 16.141109 7.2006631
1574.17 16.028 7.0924549
1575.134 15.92598 6.9953127
1576.099 15.85226 6.9264517
1577.063 15.81137 6.8903928
1578.027 15.79495 6.8787808
1578.991 15.79331 6.8819275
1579.9561 15.81286 6.9062443
1580.92 15.83992 6.9380445
1581.884 15.86752 6.9703627
1582.848 15.91983 7.0273676
1583.813 15.95775 7.0699658
1584.777 15.97736 7.0942259
1585.741 15.96069 7.0821848
1586.705 15.94493 7.071033
1587.6689 15.92424 7.0549288
1588.634 15.89491 7.0301681
1589.598 15.87555 7.0153513
1590.562 15.89185 7.0361738
1591.526 15.93512 7.0839443
1592.491 15.93774 7.0910492
1593.455 15.84064 6.9984083
1594.4189 15.70784 6.8700476
1595.3831 15.62886 6.7954869
1596.348 15.64166 6.8126893
1597.312 15.69569 6.8710976
1598.276 15.75952 6.9392848
1599.24 15.91772 7.1018233
1600.204 16.01301 7.2014322
1601.1689 15.98915 7.1818762
1602.1331 15.75921 6.9562159
1603.097 15.54712 6.7483864
1604.061 15.3972 6.6027074
1605.026 15.30753 6.5172648
1605.99 15.26613 6.4800682
1606.954 15.286 6.5041227
1607.918 15.35781 6.5800991
1608.8831 15.43372 6.660161
1609.847 15.50607 6.7366414
1610.811 15.57677 6.8114524
1611.775 15.64536 6.8841362
1612.74 15.74967 6.9925261
1613.704 15.8339 7.0808148
1614.668 15.85476 7.1057153
1615.632 15.71136 6.9663382
1616.5959 15.56569 6.8246737
1617.561 15.50179 6.7647676
1618.525 15.55946 6.8264089
1619.489 15.625 6.8959041
1620.453 15.6439 6.9187427
1621.418 15.61441 6.8931785
1622.382 15.55316 6.8358335
1623.3459 15.44759 6.7341528
1624.3101 15.3123 6.602736
1625.275 15.20325 6.4975471
1626.239 15.17014 6.4682789
1627.203 15.18118 6.4831438
1628.167 15.17361 6.4793835
1629.131 15.09426 6.4038286
1630.0959 14.98929 6.3026419
1631.0601 14.92621 6.2433262
1632.024 14.92941 6.2502747
1632.988 14.9578 6.2823987
1633.953 14.97146 6.2997823
1634.917 14.96621 6.2982373
1635.881 14.95857 6.2942872
1636.845 14.95924 6.2986336
1637.8101 14.96845 6.3115091
1638.774 14.99255 6.3392572
1639.738 15.06349 6.4138312
1640.702 15.17061 6.5245719
1641.667 15.22728 6.5848517
1642.631 15.16341 6.5245752
1643.595 15.00421 6.3689551
1644.559 14.87882 6.2471318
1645.5229 14.79031 6.1621747
1646.488 14.74201 6.1174197
1647.452 14.75747 6.1364069
1648.416 14.87256 6.2550116
1649.38 15.01674 6.4026942
1650.345 15.06536 6.4548082
1651.309 14.99348 6.3864059
1652.2729 14.89916 6.2955523
1653.2371 14.88716 6.2870059
1654.202 14.97542 6.3787107
1655.166 15.05027 6.4569912
1656.13 15.03673 6.4468699
1657.094 14.91272 6.3262668
1658.058 14.83618 6.2531223
1659.0229 14.86437 6.2847009
1659.9871 14.99312 6.4168248
1660.951 15.04331 6.4703774
1661.915 14.98592 6.4163389
1662.88 14.85064 6.2844033
1663.844 14.74535 6.1824436
1664.808 14.67571 6.1161237
1665.772 14.6306 6.0743237
1666.7371 14.59546 6.0424876
1667.701 14.56592 6.0162373
1668.665 14.55523 6.0088277
1669.629 14.57891 6.0357776
1670.594 14.69744 6.1575718
1671.558 14.74962 6.2130032
1672.522 14.68833 6.154954
1673.486 14.44011 5.9099669
1674.45 14.30501 5.7780905
1675.415 14.35155 5.8278484
1676.379 14.56486 6.0443645
1677.343 14.65394 6.1366415
1678.307 14.49727 5.9831591
1679.272 14.24388 5.7329531
1680.236 14.12032 5.6125646
1681.2 14.25665 5.752058
1682.1639 14.43484 5.9334035
1683.129 14.55123 6.0529451
1684.093 14.5387 6.0435543
1685.057 14.52128 6.0292664
1686.021 14.51572 6.0268312
1686.986 14.53187 6.0461011
1687.95 14.54666 6.0640016
1688.9139 14.56477 6.0852132
1689.8781 14.58428 6.1078196
1690.843 14.58621 6.1128416
1691.807 14.54183 6.0715432
1692.771 14.48004 6.0128279
1693.735 14.44415 5.9800072
1694.699 14.47943 6.0183496
1695.6639 14.52079 6.0627685
1696.6281 14.53178 6.0768085
1697.592 14.48175 6.0298223
1698.556 14.42511 5.9762201
1699.521 14.37135 5.9254956
1700.485 14.31597 5.8731427
1701.449 14.27579 5.8359828
1702.413 14.26209 5.8252983
1703.3781 14.27159 5.8378119
1704.342 14.28016 5.8493867
1705.306 14.28607 5.8582969
1706.27 14.287 5.8622212
1707.234 14.27869 5.8569021
1708.199 14.24221 5.8234115
1709.163 14.20123 5.7854118
1710.127 14.17389 5.7610483
1711.0909 14.16579 5.7559199
1712.056 14.16624 5.7593417
1713.02 14.1785 5.7745657
1713.984 14.20881 5.8078356
1714.948 14.22575 5.8277316
1715.913 14.19417 5.7991071
1716.877 14.12435 5.7322354
1717.8409 14.07171 5.6825409
1718.8051 14.07804 5.6918135
1719.77 14.11903 5.7357454
1720.734 14.15224 5.7718906
1721.698 14.14379 5.7663736
1722.662 14.13108 5.7565928
1723.626 14.15475 5.7831898
1724.5909 14.23572 5.8670864
1725.5551 14.32121 5.9554992
1726.519 14.37865 6.0158577
1727.483 14.40992 6.0500445
1728.448 14.3955 6.0385427
1729.412 14.27643 5.9223857
1730.376 14.0717 5.7205658
1731.34 13.91227 5.5640445
1732.3051 13.90484 5.5595255
1733.269 14.00227 5.6598606
1734.233 14.02867 5.6891651
1735.197 13.9196 5.5829968
1736.161 13.76012 5.4264188
1737.126 13.69174 5.3609419
1738.09 13.72951 5.4016109
1739.054 13.81827 5.4932685
1740.0179 13.92342 5.6013165
1740.983 14.05553 5.7363257
1741.947 14.14822 5.831912
1742.911 14.13291 5.8194971
1743.875 14.00078 5.6902623
1744.84 13.90654 5.5989199
1745.804 13.9033 5.5985751
1746.7679 13.97004 5.6682096
1747.7321 13.99017 5.6912341
1748.697 13.94468 5.6486425
1749.661 13.87029 5.5771475
1750.625 13.84716 5.5569134
1751.589 13.89701 5.6096592
1752.553 13.95304 5.6685858
1753.5179 13.95133 5.6697764
1754.4821 13.86665 5.5879941
1755.446 13.79423 5.5184741
1756.41 13.7698 5.496944
1757.375 13.80247 5.5325184
1758.339 13.8321 5.5650506
1759.303 13.84811 5.5839648
1760.267 13.85318 5.5919399
1761.2321 13.87567 5.6173406
1762.196 13.9459 5.6904788
1763.16 14.02271 5.7701988
1764.124 14.04966 5.8000612
1765.089 13.98972 5.7430391
1766.053 13.91429 5.670526
1767.017 13.84735 5.606504
1767.981 13.78218 5.5442543
1768.9449 13.73268 5.4976788
1769.91 13.70009 5.4680181
1770.874 13.68703 5.4578857
1771.838 13.68979 5.4635773
1772.802 13.73886 5.5155816
1773.767 13.80264 5.5823011
1774.731 13.81557 5.5981708
1775.6949 13.71696 5.5025043
1776.6591 13.60186 5.3903508
1777.624 13.52173 5.3131742
1778.588 13.468 5.2623973
1779.552 13.46002 5.2573738
1780.516 13.52365 5.3239636
1781.48 13.69508 5.4983573
1782.4449 13.79719 5.6034384
1783.4091 13.76393 5.5731511
1784.373 13.63565 5.4478459
1785.337 13.52832 5.3434968
1786.302 13.44862 5.2667837
1787.266 13.40369 5.2248421
1788.23 13.39987 5.2240148
1789.194 13.47777 5.3049121
1790.1591 13.56551 5.3956575
1791.123 13.65461 5.4877639
1792.087 13.76398 5.6001463
1793.051 13.81631 5.6554923
1794.016 13.75761 5.5998173
1794.98 13.61 5.4552331
1795.944 13.46685 5.3151155
1796.908 13.3382 5.1895018
1797.8719 13.23678 5.091125
1798.837 13.17817 5.0355663
1799.801 13.19985 5.0602999
1800.765 13.24687 5.1103783
1801.729 13.3029 5.1694736
1802.694 13.3843 5.2539473
1803.658 13.4252 5.2979245
1804.6219 13.32901 5.2048163
1805.5861 13.12098 4.999876
1806.551 12.99181 4.8738036
1807.515 13.12316 5.008256
1808.479 13.39695 5.2851524
1809.443 13.58571 5.4770269
1810.407 13.56247 5.4569082
1811.3719 13.46795 5.3655186
1812.3361 13.42366 5.3243632
1813.3 13.44697 5.3508143
1814.264 13.4709 5.3778915
1815.229 13.42144 5.3315902
1816.193 13.30252 5.2158322
1817.157 13.21274 5.1292214
1818.121 13.22749 5.1471486
1819.0861 13.32554 5.248385
1820.05 13.41216 5.3381968
1821.014 13.47731 5.4065461
1821.978 13.51781 5.4502521
1822.943 13.52161 5.4572701
1823.907 13.47618 5.415062
1824.871 13.41639 5.3585024
1825.835 13.38189 5.3272405
1826.799 13.37596 5.3245564
1827.764 13.37054 5.3223934
1828.728 13.34685 5.3019667
1829.692 13.30546 5.2638464
1830.656 13.28333 5.2449956
1831.621 13.29327 5.2582264
1832.585 13.3245 5.2927527
1833.549 13.33979 5.311348
1834.5129 13.33242 5.307291
1835.478 13.31402 5.2922168
1836.442 13.29586 5.2773876
1837.406 13.27365 5.2585177
1838.37 13.25863 5.2468467
1839.334 13.25141 5.2429843
1840.299 13.24778 5.2427258
1841.2629 13.28393 5.2822523
1842.2271 13.40743 5.4091387
1843.191 13.58975 5.5948548
1844.156 13.63162 5.6401339
1845.12 13.43087 5.4427977
1846.084 13.16698 5.1823316
1847.048 13.03577 5.0545564
1848.0129 13.14387 5.1661038
1848.9771 13.25707 5.2827573
1849.941 13.31346 5.3426113
1850.905 13.28967 5.3222952
1851.87 13.2612 5.2973123
1852.834 13.22396 5.2635665
1853.798 13.17963 5.2227411
1854.762 13.13505 5.1816754
1855.726 13.08575 5.1359005
1856.691 13.04767 5.1013608
1857.655 13.03246 5.0896969
1858.619 13.10855 5.1693435
1859.583 13.13511 5.199471
1860.548 13.07563 5.1435733
1861.512 12.89757 4.9691019
1862.476 12.739 4.8141327
1863.4399 12.58682 4.6655636
1864.405 12.4643 4.5466704
1865.369 12.42776 4.5137634
1866.333 12.56503 4.6546783
1867.297 12.74826 4.8415637
1868.261 12.89927 4.9962416
1869.226 12.99034 5.0909944
1870.1899 13.0684 5.1727448
1871.1541 13.16546 5.2735062
1872.118 13.28615 5.3979101
1873.083 13.3197 5.4351888
1874.047 13.17581 5.2950354
1875.011 12.93429 5.0572643
1875.975 12.72192 4.8486547
1876.9399 12.51845 4.6489611
1877.9041 12.39091 4.5252066
1878.868 12.3948 4.5328932
1879.832 12.60251 4.7444124
1880.797 12.78603 4.9317565
1881.761 12.838 4.9875603
1882.725 12.77251 4.9259157
1883.689 12.68525 4.8425145
1884.653 12.53526 4.6963949
1885.618 12.39843 4.5634522
1886.582 12.39449 4.5634084
1887.546 12.7268 4.8996267
1888.51 13.05647 5.2332177
1889.475 13.12734 5.3080263
1890.439 12.89558 5.0802131
1891.403 12.64651 4.8351026
1892.3669 12.58609 4.7786555
1893.332 12.67319 4.8697457
1894.296 12.72713 4.9276848
1895.26 12.60198 4.8065467
1896.224 12.40436 4.6129513
1897.188 12.34107 4.5537004
1898.153 12.48175 4.6984358
1899.1169 12.65577 4.8765221
1900.0811 12.66666 4.8914909
1901.045 12.50493 4.7338524
1902.01 12.36796 4.6009932
1902.974 12.41742 4.6545725
1903.938 12.6255 4.866785
1904.902 12.75498 5.0004125
1905.8669 12.74685 4.9964471
1906.8311 12.65294 4.9067121
1907.795 12.55783 4.8157902
1908.759 12.4493 4.7114625
1909.724 12.36817 4.634553
1910.688 12.36653 4.6371441
1911.652 12.45705 4.7319083
1912.616 12.55492 4.8340368
1913.58 12.64526 4.9286494
1914.545 12.72591 5.0135918
1915.509 12.76618 5.0581632
1916.473 12.74565 5.0419493
1917.437 12.69345 4.9940791
1918.402 12.67055 4.9755287
1919.366 12.6994 5.0087376
1920.33 12.72043 5.0341415
1921.2939 12.68886 5.0069599
1922.259 12.55852 4.8810282
1923.223 12.4999 4.8268251
1924.187 12.56076 4.892118
1925.151 12.71605 5.051856
1926.115 12.76432 5.1045885
1927.08 12.62378 4.9685302
1928.0439 12.44065 4.7898917
1929.0081 12.34913 4.7028794
1929.972 12.44755 4.8058219
1930.937 12.51796 4.8807735
1931.901 12.52361 4.8909764
1932.865 12.44804 4.8199739
1933.829 12.37713 4.7536464
1934.7939 12.2973 4.6784201
1935.7581 12.2279 4.6136332
1936.722 12.20172 4.592083
1937.686 12.27293 4.6679373
1938.651 12.34263 4.7423015
1939.615 12.37434 4.7786865
1940.579 12.37326 4.7822967
1941.543 12.33419 4.7479339
1942.507 12.2261 4.6445656
1943.472 12.06995 4.4931583
1944.436 11.95394 4.3819022
1945.4 11.89521 4.3279409
1946.364 11.88009 4.3176055
1947.329 11.90627 4.3485913
1948.293 12.03222 4.4793577
1949.257 12.12429 4.5762606
1950.2209 12.12663 4.5834484
1951.186 12.04272 4.5044084
1952.15 11.98577 4.4523392
1953.114 12.01392 4.4853854
1954.078 12.08267 4.5590482
1955.042 12.13857 4.6198764
1956.007 12.18646 4.6727161
1956.9709 12.20565 4.6968679
1957.9351 12.15998 4.6561747
1958.899 12.03195 4.5331388
1959.864 11.9506 4.4568033
1960.828 12.02592 4.5371494
1961.792 12.19141 4.7076826
1962.756 12.30392 4.8252511
1963.7209 12.27315 4.799562
1964.6851 12.19697 4.7284741
1965.649 12.1485 4.685113
1966.613 12.12894 4.6706772
1967.578 12.12797 4.6748538
1968.542 12.16157 4.7136116
1969.506 12.21836 4.7755766
1970.47 12.24261 4.8050184
1971.434 12.16254 4.7301569
1972.399 12.04595 4.6187968
1973.363 12.01903 4.5971184
1974.327 12.13146 4.714807
1975.291 12.24089 4.8295112
1976.256 12.18019 4.7741094
1977.22 11.95096 4.5501881
1978.184 11.76585 4.3704038
1979.1479 11.76605 4.3759465
1980.113 11.91455 4.5298119
1981.077 12.0244 4.6450381
1982.041 12.0845 4.7105322
1983.005 12.10781 4.7392526
1983.969 12.10289 4.7397604
1984.934 12.06421 4.7065306
1985.8979 12.02762 4.6754026
1986.8621 12.02116 4.6744223
1987.826 12.0469 4.705658
1988.791 12.05444 4.7187166
1989.755 12.04358 4.7133875
1990.719 12.01429 4.6896448
1991.683 11.95617 4.6370897
1992.6479 11.84791 4.5344176
1993.6121 11.75438 4.4464884
1994.576 11.72733 4.425055
1995.54 11.7931 4.496459
1996.505 11.84065 4.5496655
1997.469 11.85414 4.5688252
1998.433 11.84215 4.562521
1999.397 11.84973 4.5758042
2000.361 11.89693 4.6287255
2001.326 11.94451 4.6820517
2002.29 11.96077 4.7040663
2003.254 11.92399 4.6730604
2004.218 11.88495 4.639811
2005.183 11.84514 4.6058159
2006.147 11.8044 4.5709023
2007.111 11.77185 4.5441952
2008.075 11.75119 4.5293965
2009.04 11.73506 4.5191517
2010.004 11.71712 4.5071087
2010.968 11.68686 4.4827623
2011.932 11.67227 4.4741035
2012.896 11.68478 4.4925632
2013.861 11.72547 4.5392256
2014.825 11.75334 4.5730801
2015.7889 11.77079 4.5965328
2016.7531 11.76784 4.5996037
2017.718 11.73591 4.5737176
2018.682 11.62757 4.4714327
2019.646 11.53663 4.3865652
2020.61 11.48065 4.3366766
2021.575 11.46113 4.3232718
2022.5389 11.47214 4.3404083
2023.5031 11.54376 4.4181733
2024.467 11.63374 4.5143151
2025.432 11.69088 4.5776405
2026.396 11.67097 4.5639286
2027.36 11.64633 4.5455036
2028.324 11.65353 4.5589371
2029.288 11.69707 4.6087284
2030.2531 11.71325 4.6311846
2031.217 11.63971 4.5639315
2032.181 11.52675 4.4572754
2033.145 11.45167 4.3885179
2034.11 11.4679 4.4110951
2035.074 11.50183 4.4513831
2036.038 11.52497 4.4808993
2037.002 11.53854 4.5008631
2037.967 11.54295 4.511692
2038.931 11.56248 4.5376525
2039.895 11.56978 4.5514002
2040.859 11.49956 4.4876461
2041.823 11.23504 4.2296085
2042.788 10.98144 3.9825168
2043.752 10.92868 3.9362769
2044.7159 11.09228 4.1064138
2045.6801 11.26971 4.2903996
2046.645 11.34246 4.369729
2047.609 11.3304 4.3642607
2048.573 11.30824 4.3487091
2049.5371 11.27218 4.3192768
2050.501 11.24428 4.2980208
2051.4661 11.26649 4.3269014
2052.4299 11.34942 4.4165106
2053.394 11.41243 4.4862204
2054.3579 11.38026 4.4607668
2055.323 11.26259 4.3498387
2056.2871 11.1924 4.2864013
2057.251 11.20027 4.3010406
2058.2151 11.24271 4.3502698
2059.1799 11.24292 4.3572917
2060.144 11.18697 4.3081665
2061.1079 11.13787 4.2659078
2062.072 11.13966 4.2745581
2063.0371 11.20138 4.3431635
2064.001 11.24634 4.3950186
2064.9651 11.26805 4.4236431
2065.929 11.27412 4.4366436
2066.894 11.2796 4.4490805
2067.8579 11.28259 4.4590364
2068.822 11.2926 4.4760323
2069.7859 11.32867 4.519104
2070.75 11.40653 4.6039863
2071.7151 11.42254 4.6270418
2072.679 11.33591 4.5474677
2073.6431 11.19956 4.4181929
2074.6069 11.12252 4.3482442
2075.572 11.1522 4.3850412
2076.5359 11.19017 4.4301386
2077.5 11.20602 4.453135
2078.4641 11.1983 4.452579
2079.429 11.1712 4.4326658
2080.3931 11.08738 4.3560457
2081.3569 10.99184 4.2677212
2082.321 10.95403 4.2371459
2083.2859 11.1002 4.3905735
2084.25 11.18353 4.4811745
2085.2141 11.11974 4.4246721
2086.178 10.87239 4.1846266
2087.1431 10.73726 4.0568275
2088.1069 10.82209 4.1489973
2089.071 11.0049 4.3391657
2090.0349 11.14992 4.4915609
2091 11.28018 4.6292219
2091.9641 11.32712 4.6835732
2092.928 11.23694 4.6008215
2093.8921 11.01567 4.3869977
2094.856 10.84475 4.2235408
2095.821 10.77704 4.1633196
2096.7849 10.77019 4.1639676
2097.749 10.78824 4.1895351
2098.7129 10.85321 4.2620373
2099.678 10.90848 4.3248663
2100.6421 10.92636 4.350316
2101.606 10.91623 4.3477712
2102.5701 10.92236 4.3615055
2103.5349 10.99023 4.4370022
2104.499 11.06405 4.5184612
2105.4629 11.08241 4.5444756
2106.427 11.02052 4.4902596
2107.3921 10.96599 4.4434285
2108.355 10.9835 4.4686365
2109.3201 11.05295 4.5458202
2110.2839 11.09833 4.5989408
2111.249 11.09023 4.598609
2112.2119 11.04359 4.5597363
2113.177 10.95682 4.4807687
2114.1411 10.81573 4.3474908
2115.105 10.70085 4.240437
2116.0691 10.70847 4.2559037
2117.0339 10.80555 4.3608522
2117.998 10.82573 4.3889132
2118.9619 10.6624 4.2334781
2119.926 10.46628 4.0452719
2120.8911 10.42955 4.0164814
2121.855 10.57244 4.1673174
2122.8191 10.73276 4.3356028
2123.783 10.80611 4.4169326
2124.748 10.79987 4.4186988
2125.7119 10.81842 4.4452634
2126.676 10.88697 4.5218453
2127.6399 10.95998 4.6029034
2128.604 10.97323 4.6242199
2129.5691 10.91844 4.5775204
2130.533 10.83611 4.5032883
2131.4971 10.70975 4.3850446
2132.4609 10.55593 4.2393556
2133.426 10.49162 4.1832037
2134.3899 10.55368 4.2534285
2135.354 10.65997 4.3679013
2136.3181 10.71812 4.4342499
2137.283 10.70508 4.4294329
2138.2471 10.69673 4.4293146
2139.2109 10.70877 4.4496021
2140.175 10.73886 4.4879575
2141.1399 10.76654 4.5239248
2142.104 10.79572 4.5614038
2143.0681 10.81578 4.5897779
2144.032 10.82198 4.6043072
2144.9971 10.83194 4.622622
2145.9609 10.79771 4.5967541
2146.925 10.65669 4.4641128
2147.8889 10.46691 4.2827272
2148.854 10.39557 4.2198071
2149.8181 10.62554 4.4582052
2150.782 10.80836 4.649467
2151.7461 10.81286 4.6624265
2152.71 10.59437 4.4524107
2153.675 10.43759 4.304131
2154.6389 10.42458 4.2996268
2155.603 10.46611 4.3496814
2156.5669 10.46128 4.3533883
2157.532 10.30693 4.207602
2158.4961 10.19739 4.1066332
2159.46 10.17087 4.0886984
2160.4241 10.22187 4.1483016
2161.3889 10.3075 4.2425561
2162.353 10.50345 4.4471407
2163.3169 10.6821 4.6344376
2164.281 10.73614 4.6971426
2165.2461 10.62506 4.5947518
2166.209 10.5056 4.4839768
2167.1741 10.40585 4.3929477
2168.1379 10.33219 4.3280115
2169.103 10.30058 4.3051529
2170.0659 10.36484 4.3781586
2171.031 10.44049 4.4625907
2171.9951 10.49269 4.5235786
2172.959 10.52183 4.5615191
2173.9231 10.521 4.5695076
2174.8879 10.47045 4.5277987
2175.8521 10.38711 4.4533062
2176.8159 10.29364 4.3686976
2177.78 10.16768 4.2516155
2178.7451 10.0786 4.1714382
2179.709 10.10027 4.2020144
2180.6731 10.21737 4.3280373
2181.637 10.32027 4.4398723
2182.6021 10.35828 4.4868445
2183.5659 10.35833 4.4958591
2184.53 10.34782 4.4943314
2185.4939 10.3265 4.4820051
2186.458 10.30896 4.4734764
2187.4231 10.31513 4.4886813
2188.387 10.33924 4.5218287
2189.3511 10.33339 4.5250335
2190.3149 10.26965 4.4703603
2191.28 10.19725 4.4070525
2192.2439 10.19946 4.4183574
2193.208 10.29396 4.5219684
2194.1721 10.35263 4.5897641
2195.137 10.26054 4.5068216
2196.1011 10.07969 4.3351254
2197.0649 10.0347 4.2993016
2198.0291 10.18164 4.4554229
2198.9939 10.36653 4.6495166
2199.958 10.4652 4.7573967
2200.9221 10.46556 4.7669797
2201.886 10.38297 4.693625
2202.8511 10.17133 4.4912462
2203.8149 9.9019346 4.2311125
2204.7791 9.7456408 4.0840974
2205.7429 9.7435904 4.0913367
2206.708 9.7912235 4.1482849
2207.6721 9.8574238 4.2238045
2208.636 9.9433641 4.3190746
2209.6001 10.02806 4.4131165
2210.564 10.1526 4.5470133
2211.5291 10.2572 4.6609955
2212.4929 10.287 4.7001781
2213.457 10.10474 4.5273175
2214.4209 10.00655 4.4385366
2215.386 10.05114 4.4925613
2216.3501 10.19403 4.6448889
2217.314 10.28092 4.7412281
2218.2781 10.25229 4.7220612
2219.2429 10.20947 4.688725
2220.207 10.18756 4.6763048
2221.1709 10.19112 4.6893644
2222.135 10.17412 4.681879
2223.1001 10.09453 4.6118264
2224.063 10.0101 4.5369244
2225.0281 9.9842701 4.5206561
2225.9919 10.07399 4.6199384
2226.957 10.13138 4.6869154
2227.9199 10.0779 4.6430125
2228.885 9.9600191 4.5347433
2229.8491 9.9028721 4.4872103
2230.813 10.04539 4.6393518
2231.7771 10.17347 4.7770691
2232.7419 10.15067 4.7639275
2233.7061 9.9710312 4.5939503
2234.6699 9.8278217 4.460413
2235.634 9.8137331 4.4560099
2236.5991 9.8759041 4.5278883
2237.563 9.957386 4.6190772
2238.5271 10.08057 4.7519827
2239.491 10.16211 4.8432527
2240.4561 10.12924 4.8201365
2241.4199 10.0084 4.7090497
2242.384 9.892108 4.6025248
2243.3479 9.7838602 4.5040531
2244.313 9.7067938 4.4367862
2245.2771 9.6918859 4.4316792
2246.241 9.7388887 4.488492
2247.2051 9.7951498 4.5545759
2248.1689 9.8526926 4.6219506
2249.134 9.9012585 4.6803718
2250.0979 9.9150801 4.7040472
2251.062 9.8846426 4.6834764
2252.0259 9.8496914 4.6584005
2252.991 9.8469486 4.6655564
2253.9551 9.8733826 4.70189
2254.9189 9.8780651 4.7164793
2255.8831 9.8503799 4.6987147
2256.8479 9.8085155 4.6667886
2257.812 9.7860327 4.6542468
2258.7759 9.7945213 4.6726847
2259.74 9.7675838 4.6557088
2260.7051 9.6155386 4.5136456
2261.6689 9.4009924 4.3090792
2262.6331 9.3872547 4.3053336
2263.5969 9.6806831 4.6087618
2264.562 9.9869032 4.925004
2265.5259 10.08926 5.0373807
2266.49 9.9408321 4.8989844
2267.4541 9.8547678 4.8229618
2268.418 9.850256 4.8284984
2269.3831 9.89505 4.8833637
2270.3469 9.9522886 4.9506698
2271.311 10.07083 5.0792913
2272.2749 10.11628 5.1348271
2273.24 10.03615 5.0648065
2274.2041 9.8654518 4.9042158
2275.168 9.7686958 4.8175745
2276.1321 9.8397055 4.8987103
2277.0969 9.896018 4.9651656
2278.061 9.8617105 4.9410024
2279.0249 9.7237463 4.8131886
2279.989 9.6371593 4.736763
2280.9541 9.6302662 4.7400513
2281.917 9.6730804 4.7930317
2282.8821 9.7564344 4.8865838
2283.8459 9.9250975 5.0654407
2284.811 10.01709 5.1676483
2285.7739 9.9425135 5.1032724
2286.739 9.7870836 4.9580746
2287.7029 9.6892424 4.870461
2288.667 9.7360725 4.9275293
2289.6311 9.7830982 4.9848013
2290.5959 9.7960119 5.007977
2291.5601 9.7767582 4.9989858
2292.5239 9.7395535 4.9720488
2293.488 9.6302462 4.8730192
2294.4529 9.5520449 4.8051114
2295.417 9.5934572 4.8568172
2296.3811 9.7629538 5.0366149
2297.345 9.8942785 5.1782455
2298.3101 9.8957272 5.190021
2299.2739 9.8235388 5.1281533
2300.238 9.7611141 5.0760593
2301.2019 9.722682 5.0479627
2302.167 9.665988 5.0016241
2303.1311 9.5261927 4.8721814
2304.095 9.3414125 4.6977577
2305.0591 9.2452984 4.61201
2306.0229 9.2939062 4.6709881
2306.988 9.3762035 4.7636757
2307.9519 9.3840027 4.7818589
2308.916 9.3248043 4.7330537
2309.8799 9.3193836 4.73803
2310.845 9.490653 4.9197164
2311.8091 9.6985779 5.1380539
2312.7729 9.7578821 5.2077742
2313.7371 9.6499443 5.1102614
2314.7019 9.5139685 4.984725
2315.666 9.3973846 4.8785787
2316.6299 9.3108902 4.802525
2317.594 9.2969275 4.7990117
2318.5591 9.3695335 4.8820839
2319.5229 9.477005 5.0000134
2320.4871 9.5943909 5.1278663
2321.4509 9.7276659 5.2716107
2322.416 9.8255711 5.3800049
2323.3799 9.9020081 5.4669223
2324.344 9.9301596 5.5055628
2325.3081 9.8457546 5.4316521
2326.272 9.5540409 5.1504345
2327.2371 9.4044275 5.0113363
2328.2009 9.505456 5.1228719
2329.165 9.7567539 5.3846846
2330.1289 9.8777905 5.5162377
2331.094 9.7621822 5.4111643
2332.0581 9.6545305 5.3140416
2333.022 9.6239767 5.2940187
2333.9861 9.6680622 5.3486423
2334.9509 9.6894569 5.3805881
2335.915 9.7173414 5.4190197
2336.8789 9.693305 5.4055324
2337.843 9.5416346 5.2644176
2338.8081 9.2034826 4.9368362
2339.771 9.0700703 4.8139749
2340.7361 9.3849964 5.1394796
2341.7 9.7959137 5.5609665
2342.665 9.9804106 5.7560501
2343.6279 9.8555174 5.6417232
2344.593 9.7065573 5.5033574
2345.5569 9.5677433 5.3751278
2346.521 9.4434366 5.2614117
2347.4851 9.3393927 5.1679616
2348.45 9.2612734 5.1004477
2349.4141 9.188818 5.0385928
2350.3779 9.0761881 4.9365644
2351.342 8.957571 4.8285542
2352.3069 8.9274187 4.80902
2353.271 9.1094847 5.0016985
2354.2351 9.3053951 5.2082253
2355.199 9.4492159 5.3626618
2356.1641 9.5415287 5.4656067
2357.1279 9.5841455 5.5188446
2358.092 9.5729485 5.5182738
2359.0559 9.5120602 5.4680119
2360.021 9.3490725 5.3156662
2360.9851 9.0766611 5.0538883
2361.949 8.9281273 4.9159875
2362.9131 9.1747131 5.1732111
2363.877 9.570981 5.5801163
2364.842 9.7192068 5.7389946
2365.8059 9.5785275 5.6089563
2366.77 9.3946228 5.4356966
2367.7339 9.3099279 5.3616462
2368.699 9.3025627 5.3649406
2369.6631 9.2903748 5.3634028
2370.627 9.278533 5.3622098
2371.5911 9.2500677 5.3443975
2372.5559 9.1625195 5.2675118
2373.52 9.0210686 5.1367164
2374.4839 8.9562397 5.082541
2375.448 8.9933329 5.1302919
2376.4131 9.0792627 5.2268906
2377.377 9.1800499 5.3383346
2378.3411 9.3148012 5.4837456
2379.3049 9.3489103 5.5285125
2380.27 9.2138987 5.4041729
2381.2339 9.0090141 5.2099471
2382.198 8.9276228 5.1392179
2383.1621 9.0248442 5.2471018
2384.126 9.1021357 5.335053
2385.0911 9.1073761 5.3509669
2386.0549 9.0611162 5.3153667
2387.019 9.0327396 5.2976532
2387.9829 9.0189638 5.2945371
2388.948 9.0323839 5.3186302
2389.9121 9.0871716 5.3840799
2390.876 9.1809072 5.4884744
2391.8401 9.2443628 5.5625911
2392.8049 9.2718821 5.6007791
2393.769 9.2722807 5.6118374
2394.7329 9.240346 5.5905595
2395.697 9.170125 5.5309968
2396.6621 9.1134892 5.4850292
2397.625 9.0816841 5.4638667
2398.5901 9.0632772 5.4561262
2399.554 9.0526018 5.4561019
2400.519 9.0456276 5.4597912
2401.4819 9.0475779 5.4723797
2402.447 9.0802641 5.5157266
2403.4109 9.1088037 5.5549121
2404.375 9.0851765 5.5419316
2405.3391 8.9760532 5.4434533
2406.304 8.9270754 5.405127
2407.2681 9.051671 5.5403643
2408.2319 9.2355261 5.7348557
2409.196 9.2956524 5.8056197
2410.1609 9.160306 5.6809163
2411.125 9.0330276 5.564271
2412.0891 9.023304 5.5651779
2413.053 9.0783167 5.630816
2414.0181 9.0752363 5.6383719
2414.9819 8.9537725 5.5275283
2415.946 8.8444815 5.4288578
2416.9099 8.8229141 5.4179053
2417.875 8.8696947 5.4753113
2418.8391 8.9220715 5.5382996
2419.803 8.9761953 5.6030293
2420.7671 9.019989 5.6574287
2421.731 9.0313396 5.6793785
2422.696 9.01721 5.6758585
2423.6599 9.034627 5.7038684
2424.624 9.1391182 5.8189516
2425.5879 9.2388382 5.9292574
2426.553 9.2235336 5.9245481
2427.5171 9.0908899 5.802485
2428.481 8.9752045 5.6973739
2429.4451 8.9208784 5.6536212
2430.4099 8.9038944 5.6472139
2431.374 8.8981552 5.6520395
2432.3379 8.9050493 5.6694918
2433.302 8.9274664 5.7024651
2434.2671 8.9927073 5.7782683
2435.231 9.0678825 5.8639884
2436.1951 9.06285 5.8694987
2437.1589 8.9321508 5.7493353
2438.124 8.8342314 5.6619596
2439.0879 8.8706121 5.7088661
2440.052 9.0000114 5.8487887
2441.0161 9.0428486 5.9021444
2441.98 8.9497986 5.8196054
2442.9451 8.8464537 5.726779
2443.9089 8.7627478 5.653573
2444.873 8.6959963 5.5973191
2445.8369 8.7188892 5.6307011
2446.802 8.9486771 5.870986
2447.7661 9.1490536 6.0818429
2448.73 9.2053604 6.148622
2449.6941 9.1132956 6.0670261
2450.6589 9.0387497 6.0029511
2451.623 8.9935865 5.968245
2452.5869 8.9644413 5.9495482
2453.551 8.9492521 5.9448032
2454.5161 8.9483089 5.954309
2455.479 8.9320383 5.9484572
2456.4441 8.8854256 5.9122801
2457.408 8.8306952 5.8679662
2458.373 8.7707033 5.8183966
2459.3359 8.6967525 5.754838
2460.301 8.6716986 5.7401934
2461.2649 8.7543659 5.8332496
2462.229 8.8655243 5.954792
2463.1931 8.9632349 6.06288
2464.158 9.0566893 6.1667123
2465.1221 9.0709743 6.1913605
2466.0859 8.8707085 6.0014472
2467.05 8.6301174 5.771204
2468.0149 8.5389128 5.6903477
2468.979 8.6175127 5.7792802
2469.9431 8.7199478 5.8920398
2470.907 8.806716 5.9891224
2471.8721 8.8722506 6.0649767
2472.8359 8.9031458 6.1061702
2473.8 8.8912182 6.1045351
2474.7639 8.8905783 6.1141772
2475.729 8.981039 6.2149248
2476.6931 9.0894585 6.333612
2477.657 9.0668859 6.3212962
2478.6211 8.8899403 6.1546016
2479.585 8.695797 5.9706974
2480.55 8.5323458 5.8174901
2481.5139 8.421133 5.7164993
2482.478 8.4252949 5.7308764
2483.4419 8.5785418 5.8943272
2484.407 8.7299824 6.0559754
2485.3711 8.7823095 6.1184907
2486.335 8.7444267 6.0907841
2487.2991 8.6536446 6.0101714
2488.2639 8.4701786 5.8368731
2489.228 8.3198242 5.6966691
2490.1919 8.3152189 5.7022018
2491.156 8.4447136 5.8418274
2492.1211 8.5748129 5.982058
2493.085 8.7364845 6.1538382
2494.0491 8.85361 6.2810645
2495.0129 8.8369122 6.2744551
2495.978 8.6870413 6.134675
2496.9419 8.5898533 6.047555
2497.906 8.5570211 6.0247827
2498.8701 8.5646095 6.0424204
2499.834 8.6139526 6.1018
2500.7991 8.7120447 6.2099304
2501.7629 8.7746887 6.2825894
2502.7271 8.7899361 6.3078432
2503.6909 8.7810297 6.3089299
2504.656 8.7561121 6.2940073
2505.6201 8.7123108 6.2601795
2506.584 8.6668148 6.2246432
2507.5481 8.6321163 6.1998959
2508.5129 8.5895348 6.1672611
2509.4771 8.5146799 6.1023345
2510.4409 8.4017353 5.9993043
2511.405 8.3511086 5.9585824
2512.3701 8.4418068 6.0591836
2513.333 8.5448246 6.1720705
2514.2981 8.5838804 6.2210059
2515.262 8.5607491 6.2077293
2516.2271 8.536644 6.1934795
2517.1899 8.5222273 6.1888838
2518.155 8.5212564 6.1977434
2519.1189 8.5490246 6.2353177
2520.083 8.6018648 6.2979541
2521.0471 8.6195803 6.3254528
2522.012 8.5540867 6.2697377
2522.9761 8.4590044 6.1844134
2523.9399 8.3530149 6.0881672
2524.9041 8.2399139 5.9847984
2525.8689 8.1739817 5.9285932
2526.833 8.2100925 5.9744101
2527.7971 8.2833996 6.0574107
2528.761 8.3536901 6.1373787
2529.7261 8.4219904 6.2153554
2530.6899 8.4923706 6.2953863
2531.6541 8.5806131 6.3932686
2532.6179 8.6604309 6.4827099
2533.583 8.7128878 6.5447888
2534.5471 8.7367315 6.5782313
2535.511 8.7044373 6.5555196
2536.4751 8.582346 6.4429989
2537.439 8.4360275 6.3062348
2538.4041 8.3421669 6.2219267
2539.3679 8.3050318 6.1943178
2540.332 8.2809315 6.1797314
2541.2959 8.2474499 6.1557474
2542.261 8.2295742 6.1473665
2543.2251 8.2801743 6.2074375
2544.189 8.4303417 6.3670588
2545.1531 8.5172186 6.463377
2546.1179 8.517971 6.4735632
2547.082 8.4566822 6.4216857
2548.0459 8.3480959 6.322494
2549.01 8.1254997 6.1092792
2549.9751 8.0266085 6.0197639
2550.939 8.1327982 6.1353025
2551.9031 8.3108873 6.3227277
2552.8669 8.4001732 6.4213314
2553.832 8.3356075 6.3660803
2554.7959 8.3289919 6.3687515
2555.76 8.4362202 6.4852538
2556.7241 8.5691175 6.627409
2557.688 8.6440573 6.7115884
2558.6531 8.662878 6.739645
2559.6169 8.6324549 6.7184296
2560.5811 8.471385 6.5665536
2561.5449 8.3217411 6.4260855
2562.51 8.3204737 6.433989
2563.4741 8.4890909 6.6117516
2564.438 8.5872049 6.7189922
2565.4021 8.4913635 6.6322632
2566.3669 8.3619738 6.5119758
2567.3311 8.313529 6.4726105
2568.2949 8.3461952 6.5143366
2569.259 8.3691769 6.5463638
2570.2241 8.3266039 6.5128284
2571.188 8.291872 6.4871058
2572.1521 8.3253679 6.5295959
2573.116 8.4163074 6.6295104
2574.0811 8.4774857 6.6996579
2575.0439 8.4964771 6.7275805
2576.009 8.4604425 6.7004805
2576.9729 8.2968264 6.5457697
2577.938 8.0389442 6.2967868
2578.9009 7.9084492 6.1751528
2579.866 8.0484657 6.3240333
2580.8301 8.2272797 6.5116839
2581.7939 8.2875929 6.5808139
2582.7581 8.2410154 6.5430374
2583.7229 8.1572657 6.4680772
2584.687 8.018713 6.3382893
2585.6509 7.907393 6.2357135
2586.615 7.9179621 6.2550111
2587.5801 8.0402117 6.3859792
2588.5439 8.124074 6.4785304
2589.5081 8.1517344 6.5148635
2590.4719 8.158473 6.5302544
2591.437 8.1704741 6.5508995
2592.4009 8.1898012 6.5788412
2593.365 8.218173 6.6158104
2594.3291 8.2636509 6.669867
2595.293 8.3014278 6.7162018
2596.2581 8.3008862 6.7242093
2597.2219 8.267457 6.6992993
2598.186 8.2593088 6.6996536
2599.1499 8.3175135 6.7663388
2600.115 8.3374348 6.7947321
2601.0791 8.2406759 6.7064171
2602.043 8.053587 6.5277505
2603.0071 7.9480028 6.4305706
2603.9719 7.9539232 6.4448824
2604.936 8.0118008 6.5111251
2605.8999 8.1463604 6.6540279
2606.864 8.3214254 6.8374181
2607.8291 8.4069824 6.9312887
2608.793 8.3320303 6.8646197
2609.7571 8.23841 6.779264
2610.7209 8.121707 6.6708035
2611.686 8.006485 6.5638142
2612.6499 7.9350319 6.5005631
2613.614 7.895875 6.4695892
2614.5779 7.9185872 6.5004625
2615.542 8.1000509 6.6900682
2616.5071 8.309618 6.9077649
2617.4709 8.3595438 6.9657893
2618.4351 8.2155008 6.8298259
2619.3989 8.0924253 6.714807
2620.364 8.0434208 6.6738486
2621.3279 8.0543365 6.6927791
2622.292 8.12955 6.7759876
2623.2561 8.2721014 6.9265137
2624.2209 8.3690138 7.0313849
2625.1851 8.3563185 7.0266213
2626.1489 8.282938 6.9611487
2627.113 8.1458693 6.8319688
2628.0779 7.9600482 6.6540203
2629.042 7.8786688 6.5804863
2630.0061 8.0577192 6.7673602
2630.97 8.2533941 6.9708347
2631.9351 8.2472887 6.972517
2632.8979 8.0654325 6.798409
2633.863 7.9778042 6.7185245
2634.8269 8.0505409 6.7989731
2635.792 8.1653423 6.9214735
2636.7549 8.2368793 7.0006704
2637.72 8.2616692 7.0331149
2638.6841 8.2471476 7.0262179
2639.6479 8.180378 6.9670486
2640.6121 8.1068249 6.9010749
2641.5769 8.0548401 6.8566532
2642.541 8.0231628 6.83251
2643.5049 8.0182619 6.8351192
2644.469 8.0622644 6.8866105
2645.4341 8.0848703 6.9166899
2646.3979 8.0180969 6.8573575
2647.3621 7.9020238 6.7487044
2648.3259 7.8848152 6.7388911
2649.291 8.0573502 6.918807
2650.2549 8.1624241 7.03123
2651.219 8.1219559 6.9980893
2652.1831 7.9946151 6.8780522
2653.147 7.9086528 6.7993689
2654.1121 7.8633342 6.7613149
2655.0759 7.8672819 6.7724943
2656.04 7.9766898 6.889112
2657.0039 8.111371 7.0309782
2657.969 8.1742229 7.1009998
2658.9331 8.1556454 7.089561
2659.897 8.1087313 7.0497599
2660.8611 7.990406 6.9385262
2661.8259 7.8837018 6.8388939
2662.79 7.8469262 6.8091612
2663.7539 7.8775291 6.8467817
2664.718 7.9240379 6.9002848
2665.6831 8.020402 7.0036268
2666.647 8.0842447 7.0744138
2667.6111 8.0491695 7.0462604
2668.575 7.948771 6.9527574
2669.54 7.9061241 6.9169903
2670.5039 7.9955769 7.0132895
2671.468 8.0724411 7.0969777
2672.4319 8.0642309 7.0955648
2673.396 8.0010862 7.0391941
2674.3611 7.9497972 6.9946618
2675.325 7.9174819 6.9690695
2676.2891 7.9023032 6.9605904
2677.2529 7.9248352 6.9897957
2678.218 7.954874 7.0264907
2679.1819 7.9379511 7.0161905
2680.146 7.8701148 6.9549541
2681.1101 7.8115039 6.9029174
2682.075 7.7965021 6.8944693
2683.0391 7.8056812 6.9101725
2684.0029 7.8230052 6.9339929
2684.967 7.8458428 6.9633036
2685.9319 7.8796329 7.0035458
2686.896 7.945972 7.0763063
2687.8601 7.9980979 7.1348286
2688.824 7.9627061 7.1058054
2689.7891 7.8318372 6.981288
2690.7529 7.7798858 6.9356537
2691.717 7.8391061 7.0011673
2692.6809 7.9186082 7.086935
2693.646 7.9459929 7.1205673
2694.6101 7.933187 7.113977
2695.574 7.9338322 7.1208096
2696.5381 7.974669 7.1678095
2697.502 7.9780211 7.1772971
2698.467 7.8845172 7.0899105
2699.4309 7.7353988 6.9468746
2700.395 7.6603131 6.8778472
2701.3589 7.7081232 6.9316878
2702.324 7.7789111 7.0084872
2703.2881 7.9029918 7.1385469
2704.252 8.0286293 7.2701349
2705.2161 8.0809288 7.3283606
2706.1809 8.0470142 7.3003492
2707.145 7.9963622 7.2555699
2708.1089 7.901968 7.1670198
2709.073 7.8194442 7.0903149
2710.0381 7.7876129 7.0642815
2711.001 7.8027582 7.0851851
2711.9661 7.8151288 7.1032996
2712.9299 7.809186 7.1030669
2713.895 7.80442 7.103991
2714.8579 7.8184972 7.1237183
2715.823 7.83777 7.1486268
2716.7871 7.822525 7.1389847
2717.751 7.753305 7.0753388
2718.7151 7.6921949 7.0197773
2719.6799 7.6270108 6.9601188
2720.644 7.6022172 6.9408188
2721.6079 7.7148561 7.0589228
2722.572 7.9803119 7.3298173
2723.5371 8.1467066 7.5016289
2724.501 7.9458961 7.306201
2725.4651 7.6943898 7.060051
2726.429 7.7095032 7.080492
2727.394 7.9634089 7.339704
2728.3579 8.0821238 7.4636908
2729.322 7.9287238 7.3155365
2730.2859 7.7464418 7.1384711
2731.25 7.7684512 7.1656704
2732.2151 7.95787 7.3602562
2733.179 8.0197058 7.4272251
2734.1431 7.9168801 7.3295054
2735.1069 7.7859659 7.2036681
2736.072 7.692328 7.1150856
2737.0359 7.641696 7.0694742
2738 7.67695 7.1097221
2738.9641 7.8351898 7.2729273
2739.929 7.9445362 7.3872151
2740.8931 7.9624949 7.4100828
2741.8569 7.9246511 7.3771191
2742.821 7.8767381 7.3340588
2743.7859 7.8091722 7.2713203
2744.75 7.7664628 7.233407
2745.7141 7.7704391 7.2421508
2746.678 7.7751489 7.2515984
2747.6431 7.7323341 7.2134991
2748.6069 7.6426601 7.1285057
2749.571 7.6179752 7.1084738
2750.5349 7.7248039 7.2199264
2751.5 7.826313 7.326036
2752.4641 7.8984728 7.4027634
2753.428 7.94349 7.4523182
2754.3921 7.9615059 7.4748435
2755.356 7.9426489 7.4604664
2756.321 7.9202118 7.4424863
2757.2849 7.8919282 7.4186249
2758.249 7.8667121 7.3978033
2759.2129 7.8595572 7.3950129
2760.178 7.8692522 7.409049
2761.1421 7.8562822 7.4003868
2762.106 7.7800112 7.3283935
2763.0701 7.7085481 7.2611799
2764.0349 7.6733861 7.2302418
2764.999 7.6649199 7.2259669
2765.9629 7.661284 7.2264919
2766.927 7.666194 7.2355351
2767.8921 7.6560669 7.229516
2768.855 7.5980358 7.1755548
2769.8201 7.5244179 7.1059866
2770.7839 7.4792471 7.0648308
2771.749 7.4640412 7.053616
2772.7119 7.4770241 7.0705514
2773.677 7.53159 7.1290493
2774.6411 7.602283 7.2036409
2775.605 7.6798911 7.2851176
2776.5691 7.7585249 7.3675914
2777.5339 7.8071342 7.4200139
2778.498 7.83113 7.4477911
2779.4619 7.8127031 7.4331145
2780.426 7.6791821 7.3033156
2781.3911 7.4930911 7.1209207
2782.355 7.4452219 7.0767136
2783.3191 7.5816188 7.2167435
2784.283 7.6934619 7.3321896
2785.248 7.7204561 7.362761
2786.2119 7.698822 7.3446703
2787.176 7.671957 7.3213201
2788.1399 7.6286569 7.2815037
2789.104 7.6180501 7.2743521
2790.0691 7.6887159 7.3484468
2791.033 7.7311182 7.3942442
2791.9971 7.6409979 7.3074894
2792.9609 7.4411221 7.110949
2793.926 7.333333 7.0064697
2794.8899 7.3929958 7.0694079
2795.854 7.465662 7.1453204
2796.8181 7.5731549 7.2560301
2797.783 7.6629038 7.348968
2798.7471 7.6224771 7.311698
2799.7109 7.4020839 7.0944309
2800.675 7.2766309 6.972075
2801.6399 7.3326678 7.0311813
2802.604 7.4627481 7.1642985
2803.5681 7.6327591 7.3373165
2804.532 7.8248 7.5323339
2805.4971 7.9599071 7.6703906
2806.4609 8.0279074 7.7413073
2807.425 8.026947 7.7432337
2808.3889 7.885438 7.6045809
2809.354 7.7002959 7.4222684
2810.3181 7.6169028 7.3416719
2811.282 7.6414661 7.3690014
2812.2461 7.6603098 7.3905816
2813.21 7.6335988 7.3665762
2814.175 7.5777259 7.3133821
2815.1389 7.457756 7.1960583
2816.103 7.304091 7.0450091
2817.0669 7.2815681 7.0250716
2818.032 7.4374299 7.1834917
2818.9961 7.5832138 7.3318009
2819.96 7.5716538 7.3227358
2820.9241 7.4702148 7.223762
2821.8889 7.3878551 7.1438394
2822.853 7.3239551 7.0823441
2823.8169 7.2990518 7.0598149
2824.781 7.3204541 7.0835619
2825.7461 7.3686919 7.1341162
2826.709 7.439033 7.2067385
2827.6741 7.5293159 7.2992773
2828.6379 7.568749 7.3409338
2829.603 7.531826 7.3062062
2830.5659 7.5060158 7.2825565
2831.531 7.547297 7.3259726
2832.4951 7.6252732 7.4060516
2833.459 7.673244 7.4560947
2834.4231 7.6778078 7.4627008
2835.3879 7.6739759 7.4608822
2836.3521 7.6617861 7.4506745
2837.3159 7.6419778 7.4328175
2838.28 7.6025281 7.3952889
2839.2451 7.5437479 7.3384018
2840.209 7.5238438 7.3203583
2841.1731 7.626874 7.4252191
2842.137 7.6753082 7.4754534
2843.1021 7.5714931 7.3734102
2844.0659 7.4141889 7.2178459
2845.03 7.379539 7.184906
2845.9939 7.4902849 7.2973309
2846.958 7.564249 7.3729444
2847.9231 7.544785 7.3551016
2848.887 7.49582 7.307725
2849.8511 7.4416609 7.255125
2850.8149 7.388392 7.2033844
2851.78 7.3565269 7.1730194
2852.7439 7.3489151 7.1668754
2853.708 7.3532619 7.1726608
2854.6721 7.3820729 7.2028799
2855.637 7.4089499 7.2311354
2856.6011 7.3876152 7.2111487
2857.5649 7.3248501 7.1497011
2858.5291 7.3238888 7.1500273
2859.4939 7.464509 7.2919064
2860.458 7.5898018 7.4184265
2861.4221 7.5810308 7.4108529
2862.386 7.4669418 7.2979307
2863.3511 7.346909 7.1790361
2864.3149 7.2099481 7.0431824
2865.2791 7.1601362 6.9944477
2866.2429 7.3113198 7.146678
2867.208 7.509233 7.3456097
2868.1721 7.5749569 7.4123206
2869.136 7.496604 7.3349247
2870.1001 7.4578228 7.297071
2871.064 7.4778819 7.318027
2872.0291 7.5117059 7.3527193
2872.9929 7.5325642 7.3744149
2873.957 7.5457001 7.3883586
2874.9209 7.5679078 7.4113441
2875.886 7.622458 7.4666429
2876.8501 7.6123052 7.4572082
2877.814 7.4810371 7.3266282
2878.7781 7.339817 7.1860666
2879.7429 7.2910571 7.1379361
2880.707 7.3213429 7.1688209
2881.6709 7.348937 7.1969843
2882.635 7.3682561 7.2168427
2883.6001 7.3872972 7.2363944
2884.563 7.4422479 7.2918243
2885.5281 7.4835329 7.3335609
2886.4919 7.423306 7.2737546
2887.457 7.258574 7.1094146
2888.4199 7.1425381 6.9937401
2889.385 7.1132302 6.9647646
2890.3491 7.1287498 6.980587
2891.313 7.187634 7.0397444
2892.2771 7.2731309 7.1254854
2893.2419 7.3615041 7.2140732
2894.2061 7.455637 7.3083906
2895.1699 7.5191269 7.3720365
2896.134 7.4972458 7.3502817
2897.0991 7.477962 7.3310947
2898.063 7.5540748 7.4072752
2899.0271 7.6874208 7.5406594
2899.991 7.7140369 7.5672846
2900.9561 7.600688 7.4539156
2901.9199 7.4806809 7.3338594
2902.884 7.4493361 7.3024359
2903.8479 7.439209 7.2922015
2904.813 7.3490939 7.2019496
2905.7771 7.1857371 7.0384274
2906.741 7.1139569 6.9664526
2907.7051 7.1772022 7.0294743
2908.6689 7.257184 7.1092033
2909.634 7.243866 7.0956035
2910.5979 7.1827669 7.034194
2911.562 7.1747808 7.0258689
2912.5259 7.2307181 7.0814381
2913.491 7.301126 7.1514487
2914.4551 7.3914652 7.2413626
2915.4189 7.4687481 7.3181915
2916.3831 7.4842649 7.3332253
2917.3479 7.4497862 7.2982349
2918.312 7.4352632 7.2831717
2919.2759 7.4496689 7.297009
2920.24 7.4719791 7.3187218
2921.2051 7.524189 7.3703055
2922.1689 7.5605998 7.4060626
2923.1331 7.4924951 7.3372755
2924.0969 7.303957 7.1480269
2925.062 7.216619 7.0599489
2926.0259 7.358849 7.2014122
2926.99 7.4652209 7.3069887
2927.9541 7.4307961 7.27174
2928.918 7.3409519 7.1810446
2929.8831 7.3360891 7.1753006
2930.8469 7.4217172 7.2600212
2931.811 7.4827938 7.3201618
2932.7749 7.4872289 7.3236337
2933.74 7.4703531 7.3057652
2934.7041 7.4378309 7.2722235
2935.668 7.3963962 7.2297416
2936.6321 7.3609772 7.1932478
2937.5969 7.334465 7.1656318
2938.561 7.297051 7.1270876
2939.5249 7.1904082 7.0192871
2940.489 7.122458 6.950151
2941.4541 7.2025328 7.0290117
2942.417 7.3697391 7.1949787
2943.3821 7.4226899 7.2466607
2944.3459 7.3330412 7.1557169
2945.311 7.2811389 7.1024909
2946.2739 7.4567409 7.2767448
2947.239 7.6356931 7.4543185
2948.2029 7.5805831 7.3978047
2949.167 7.3165121 7.1323028
2950.1311 7.1546621 6.9689946
2951.0959 7.1286411 6.9414873
2952.0601 7.144279 6.9556131
2953.0239 7.1620302 6.9718256
2953.988 7.180687 6.9889164
2954.9529 7.1968651 7.0035009
2955.917 7.2099452 7.0149617
2956.8811 7.2486429 7.0520139
2957.845 7.346581 7.1482801
2958.8101 7.406631 7.2066293
2959.7739 7.347136 7.1454096
2960.738 7.233748 7.0302696
2961.7019 7.2129998 7.0077438
2962.667 7.342772 7.1357098
2963.6311 7.4163918 7.207499
2964.595 7.4036212 7.192872
2965.5591 7.3645592 7.1519275
2966.5229 7.3093739 7.0948339
2967.488 7.2494512 7.0329742
2968.4519 7.2151728 6.9967356
2969.416 7.2105889 6.9901652
2970.3799 7.213203 6.9907675
2971.345 7.2257652 7.0012898
2972.3091 7.2415538 7.0150146
2973.2729 7.2689471 7.0403194
2974.2371 7.2943602 7.0636177
2975.2019 7.2773461 7.0444622
2976.166 7.2144589 6.9794097
2977.1299 7.1570091 6.9197698
2978.094 7.1131358 6.8736801
2979.0591 7.094892 6.8531933
2980.0229 7.1329951 6.8890305
2980.9871 7.1958699 6.949614
2981.9509 7.1868691 6.9382977
2982.916 7.0912118 6.8402967
2983.8799 7.0411558 6.7878757
2984.844 7.16011 6.9044394
2985.8081 7.29458 7.0364938
2986.772 7.3265209 7.0659957
2987.7371 7.2739692 7.0109773
2988.7009 7.2534351 6.9879551
2989.665 7.2793932 7.0113997
2990.6289 7.2632332 6.992703
2991.594 7.1376081 6.8645134
2992.5581 6.9950562 6.7193756
2993.522 6.926228 6.6479387
2994.4861 6.9353552 6.6544318
2995.4509 7.006516 6.7229328
2996.415 7.1784582 6.8921933
2997.3789 7.2966709 7.0077014
2998.343 7.2949219 7.0032234
2999.3081 7.2564559 6.9620018
3000.271 7.3140812 7.0168548
3001.2361 7.4652929 7.1652641
3002.2 7.509306 7.2064548
3003.165 7.327116 7.0214157
3004.1279 7.207696 6.8991303
3005.093 7.2345142 6.9230528
3006.0569 7.317018 7.0026422
3007.021 7.3764582 7.059144
3007.9851 7.412138 7.0918622
3008.95 7.3911872 7.0679255
3009.9141 7.2441602 6.9178915
3010.8779 7.1210442 6.7917471
3011.842 7.0172548 6.6849055
3012.8069 6.977983 6.6425571
3013.771 7.0739932 6.7354708
3014.7351 7.2665172 6.9248757
3015.699 7.3499742 7.0051928
3016.6641 7.2390909 6.8911428
3017.6279 7.1574979 6.8063655
3018.592 7.2465668 6.8922272
3019.5559 7.3581562 7.0005889
3020.521 7.3488731 6.9880519
3021.4851 7.242805 6.8787117
3022.449 7.1494131 6.7820268
3023.4131 7.0715551 6.7008533
3024.377 7.043036 6.6689987
3025.342 7.0787368 6.7013378
3026.3059 7.1860189 6.8052421
3027.27 7.4870501 7.1028728
3028.2339 7.9049191 7.5173221
3029.199 7.9686952 7.5776525
3030.1631 7.5922089 7.1977034
3031.127 7.226109 6.8281207
3032.0911 7.0405011 6.639009
3033.0559 6.982986 6.5779662
3034.02 7.082828 6.6742635
3034.9839 7.3180218 6.9058928
3035.948 7.359726 6.9440112
3036.9131 7.0969911 6.6776671
3037.877 6.9391918 6.516243
3038.8411 7.0229368 6.5963421
3039.8049 7.1902781 6.7600188
3040.77 7.2787528 6.8448048
3041.7339 7.302403 6.8647509
3042.698 7.2783141 6.8369374
3043.6621 7.1365328 6.6914124
3044.626 7.0350509 6.5861683
3045.5911 6.9762731 6.5236044
3046.5549 6.9714928 6.5150232
3047.519 7.059381 6.5990911
3048.4829 7.2074432 6.7433147
3049.448 7.282515 6.8145247
3050.4121 7.24189 6.7700224
3051.376 7.214366 6.7386041
3052.3401 7.2703052 6.7906289
3053.3049 7.2935591 6.8099475
3054.269 7.180182 6.6926198
3055.2329 7.0059938 6.5144634
3056.197 6.9501629 6.4546456
3057.1621 7.0220208 6.5224943
3058.125 7.0826268 6.579083
3059.0901 7.0637469 6.5561581
3060.054 7.0414758 6.52983
3061.019 7.0418711 6.5261455
3061.9819 7.0693512 6.5495377
3062.947 7.1540332 6.630105
3063.9109 7.2947779 6.7667227
3064.875 7.3081379 6.775938
3065.8391 7.1105828 6.5742211
3066.804 6.9192801 6.378737
3067.7681 6.9394722 6.3947334
3068.7319 7.0451951 6.4962454
3069.696 7.0212288 6.4680505
3070.6609 6.8581138 6.3006873
3071.625 6.8210349 6.2593474
3072.5891 6.9788728 6.4129076
3073.553 7.127687 6.5574298
3074.5181 7.131968 6.5573969
3075.4819 7.082407 6.5035114
3076.446 7.1369872 6.553751
3077.4099 7.3127599 6.7251678
3078.375 7.373024 6.7810555
3079.3391 7.2227869 6.626431
3080.303 7.11239 6.5116324
3081.2671 7.1303382 6.5251627
3082.231 7.187181 6.5775738
3083.196 7.1792331 6.5651736
3084.1599 7.118691 6.5001702
3085.124 7.0932622 6.470264
3086.0879 7.1675839 6.5400953
3087.053 7.177866 6.5458665
3088.0171 7.0075641 6.3710442
3088.981 6.8609691 6.2199159
3089.9451 6.8644819 6.2188797
3090.9099 6.9743991 6.3242311
3091.874 7.1085091 6.4537644
3092.8379 7.275753 6.6164198
3093.802 7.340364 6.6764269
3094.7671 7.1221142 6.4535551
3095.731 6.928412 6.2552238
3096.6951 6.917192 6.2393603
3097.6589 7.007925 6.325438
3098.624 7.0551462 6.3679848
3099.5879 7.0594769 6.3676343
3100.552 7.0785379 6.3820004
3101.5161 7.1308079 6.429563
3102.48 7.1798601 6.4738965
3103.4451 7.1916409 6.4809399
3104.4089 7.1912909 6.4758468
3105.373 7.207768 6.4875674
3106.3369 7.2423129 6.5173454
3107.302 7.2836728 6.5539203
3108.2661 7.3398528 6.6053085
3109.23 7.3603349 6.6209884
3110.1941 7.3127828 6.5686216
3111.1589 7.2394152 6.4904246
3112.123 7.190764 6.4369364
3113.0869 7.1612768 6.4026022
3114.051 7.096622 6.3330889
3115.0161 6.922379 6.1539712
3115.979 6.943603 6.170321
3116.9441 7.40204 6.6238627
3117.908 7.7727079 6.9896307
3118.873 7.6813698 6.8933764
3119.8359 7.3054681 6.5125599
3120.801 7.0554328 6.2575884
3121.7649 6.9360061 6.1332221
3122.729 6.8927188 6.0849843
3123.6931 6.9816012 6.1689067
3124.658 7.0881009 6.2704334
3125.6221 7.2324018 6.4097557
3126.5859 7.3363771 6.5087447
3127.55 7.308486 6.4758568
3128.5149 7.175159 6.3375206
3129.479 7.048974 6.2063212
3130.4431 6.9397702 6.0920949
3131.407 6.857821 6.005116
3132.3721 6.7919068 5.9341574
3133.3359 6.773448 5.9106522
3134.3 6.8800001 6.0121489
3135.2639 7.0298872 6.1569738
3136.229 6.9977808 6.1197915
3137.1931 6.7810292 5.8979611
3138.157 6.757318 5.8691654
3139.1211 7.1154599 6.2222142
3140.085 7.450243 6.551898
3141.05 7.4656239 6.5621667
3142.0139 7.314662 6.4060917
3142.978 7.1495872 6.2358961
3143.9419 6.9765239 6.0577068
3144.907 6.870163 5.946207
3145.8711 6.8442068 5.9151106
3146.835 6.8551269 5.920886
3147.7991 6.9102449 5.9708519
3148.7639 6.9575281 6.0129733
3149.728 6.8995042 5.9497857
3150.6919 6.7749419 5.8200555
3151.656 6.744781 5.7847199
3152.6211 6.8699298 5.9046836
3153.585 6.946599 5.9761696
3154.5491 6.9255819 5.9499626
3155.5129 6.9086728 5.9278603
3156.478 6.9782119 5.9921947
3157.4419 7.065001 6.0737815
3158.406 7.017519 6.0210915
3159.3701 6.841351 5.8397112
3160.334 6.6932001 5.6863456
3161.2991 6.5115728 5.4994926
3162.2629 6.4724188 5.4551158
3163.2271 6.7781539 5.7556238
3164.1909 7.07409 6.04633
3165.156 7.099977 6.0669775
3166.1201 6.9579949 5.9197583
3167.084 6.9016719 5.8581963
3168.0481 6.9442182 5.8954992
3169.0129 6.9745541 5.9205852
3169.9771 6.9629469 5.9037294
3170.9409 6.9348669 5.8704004
3171.905 6.8499632 5.7802434
3172.8701 6.779078 5.7040982
3173.833 6.8420658 5.7618356
3174.7981 6.9991541 5.91366
3175.762 7.0299382 5.9391851
3176.7271 6.9067521 5.8107319
3177.6899 6.813426 5.7121496
3178.655 6.8191409 5.712595
3179.6189 6.8738341 5.7620244
3180.583 6.9775519 5.8604765
3181.5471 7.0967069 5.9743648
3182.512 7.1643882 6.0367751
3183.4761 7.1749549 6.0420742
3184.4399 7.1221461 5.9839993
3185.4041 6.9581351 5.8147206
3186.3689 6.8739748 5.7252889
3187.333 6.9756508 5.8216977
3188.2971 7.1401849 5.9809651
3189.261 7.2271519 6.0626674
3190.2261 7.249166 6.079411
3191.1899 7.2049069 6.0298886
3192.1541 7.036799 5.8565173
3193.1179 6.8869982 5.7014561
3194.083 6.691679 5.5008707
3195.0471 6.5951819 5.3991146
3196.011 6.6921601 5.4908366
3196.9751 6.8729782 5.6663995
3197.939 7.0104051 5.798574
3198.9041 7.1057239 5.8886366
3199.8679 7.0919828 5.869648
3200.832 6.8999701 5.6723886
3201.7959 6.7542181 5.5213947
3202.761 6.6995559 5.4614863
3203.7251 6.7133598 5.4700527
3204.689 6.836864 5.5883236
3205.6531 6.992053 5.7382817
3206.6179 7.0439219 5.7849188
3207.582 7.0034032 5.7391763
3208.5459 6.9764519 5.707006
3209.51 6.980855 5.7061934
3210.4751 6.9953208 5.7154422
3211.439 7.049356 5.7642708
3212.4031 7.0774221 5.7871342
3213.3669 6.9721298 5.6766448
3214.332 6.8000941 5.4994106
3215.2959 6.817143 5.511272
3216.26 7.0422649 5.7312107
3217.2241 7.035429 5.7191968
3218.188 6.6530371 5.3316336
3219.1531 6.3315539 5.0049787
3220.1169 6.360918 5.0291829
3221.0811 6.5297861 5.1928964
3222.0449 6.559617 5.2175798
3223.01 6.4882121 5.141027
3223.9741 6.5979772 5.2456565
3224.938 7.0645738 5.7071252
3225.9021 7.2930269 5.9304557
3226.8669 7.1078959 5.7402053
3227.8311 6.8570271 5.4842286
3228.7949 6.6080651 5.2301669
3229.759 6.42593 5.0429387
3230.7241 6.4647169 5.0766349
3231.688 6.6773748 5.2842159
3232.6521 6.74438 5.3461518
3233.616 6.5472288 5.1439404
3234.5811 6.4563422 5.0479956
3235.5439 6.6402221 5.2268372
3236.509 6.8229222 5.4044962
3237.4729 6.8966718 5.4732199
3238.438 6.8892422 5.4607673
3239.4009 6.8350978 5.4016204
3240.366 6.7477889 5.3093071
3241.3301 6.6660738 5.2226024
3242.2939 6.5847969 5.1363468
3243.2581 6.5514932 5.098073
3244.2229 6.6261139 5.1677294
3245.187 6.700036 5.236702
3246.1509 6.7007661 5.2324939
3247.115 6.671545 5.1983442
3248.0801 6.665626 5.1875019
3249.0439 6.687222 5.2041922
3250.0081 6.768158 5.280232
3250.9719 6.9322219 5.4394126
3251.937 6.9837279 5.4860401
3252.9009 6.8085761 5.3060279
3253.865 6.6414261 5.134028
3254.8291 6.765573 5.2533374
3255.793 6.9988441 5.4817839
3256.7581 7.0500779 5.5281992
3257.7219 6.9019332 5.3752546
3258.686 6.8130779 5.2816114
3259.6499 6.8243308 5.2880898
3260.615 6.8086271 5.2676191
3261.5791 6.6976118 5.1518545
3262.543 6.6067152 5.0562234
3263.5071 6.608932 5.0537176
3264.4719 6.6680489 5.1081223
3265.436 6.7464561 5.1818347
3266.3999 6.8445868 5.2752862
3267.364 6.8388038 5.2648363
3268.3291 6.6120749 5.0334506
3269.293 6.4862018 4.9029412
3270.2571 6.6135912 5.0257082
3271.2209 6.7510061 5.1585164
3272.186 6.7660179 5.1689305
3273.1499 6.73523 5.1335664
3274.114 6.7663579 5.1601324
3275.0779 6.847013 5.2362423
3276.042 6.902956 5.2876549
3277.0071 6.927803 5.3079824
3277.9709 6.9479589 5.3236408
3278.9351 6.964282 5.3354821
3279.8989 6.9749589 5.3416944
3280.864 6.9862962 5.348578
3281.8279 6.994081 5.351932
3282.792 7.0064921 5.3599281
3283.7561 7.0118241 5.3608618
3284.7209 6.9349399 5.2795939
3285.6851 6.7521749 5.0924659
3286.6489 6.6971321 5.0330787
3287.613 6.8585839 5.1902032
3288.5779 6.989172 5.3164787
3289.542 6.8826499 5.2056656
3290.5061 6.7067909 5.0255337
3291.47 6.703392 5.0178819
3292.4351 6.8339939 5.1442442
3293.3979 6.887578 5.1936173
3294.363 6.8060789 5.1079168
3295.3269 6.753005 5.0506659
3296.292 6.7578859 5.0513844
3297.2549 6.7605901 5.0499549
3298.22 6.765635 5.0508766
3299.1841 6.7423768 5.0235195
3300.1479 6.64257 4.9196348
3301.1121 6.5001669 4.7731733
3302.0769 6.4007859 4.6697512
3303.041 6.3374739 4.6024218
3304.0049 6.3599958 4.6209483
3304.969 6.5743561 4.8313332
3305.9341 6.7081099 4.9611292
3306.8979 6.646687 4.8957744
3307.8621 6.5299568 4.7751331
3308.8259 6.3918309 4.6331186
3309.791 6.2901921 4.5276084
3310.7549 6.3208561 4.5544276
3311.719 6.4607172 4.6904659
3312.6831 6.5675788 4.7935266
3313.647 6.627367 4.8495378
3314.6121 6.6708808 4.8892922
3315.5759 6.7108879 4.9255681
3316.54 6.7322431 4.9432139
3317.5039 6.7161412 4.9234271
3318.469 6.67555 4.8791695
3319.4331 6.6113701 4.8113508
3320.397 6.536653 4.7330198
3321.3611 6.5009532 4.6937289
3322.3259 6.5045519 4.693758
3323.29 6.5852618 4.7709255
3324.2539 6.8104701 4.9926171
3325.218 6.907423 5.0860767
3326.1831 6.6745591 4.849741
3327.147 6.3942919 4.5660315
3328.1111 6.4562368 4.6245584
3329.075 6.729826 4.8947554
3330.04 6.8531299 5.014689
3331.0039 6.799016 4.9572344
3331.968 6.691802 4.846705
3332.9319 6.3653378 4.516952
3333.896 6.2235069 4.3718581
3334.8611 6.5502191 4.6953301
3335.825 6.8255858 4.9674873
3336.7891 6.7220511 4.8607693
3337.7529 6.470016 4.6055784
3338.718 6.3777361 4.5101662
3339.6819 6.4161811 4.5455098
3340.646 6.4618888 4.5881429
3341.6101 6.5035052 4.6267123
3342.575 6.52174 4.6419253
3343.5391 6.4790559 4.5962501
3344.5029 6.4756079 4.5898395
3345.467 6.6014161 4.7127128
3346.4319 6.7506351 4.8590231
3347.396 6.8534932 4.9590034
3348.3601 6.8964 4.9990611
3349.324 6.8775148 4.9773569
3350.2891 6.8007441 4.8977923
3351.2529 6.7071152 4.8014026
3352.217 6.587554 4.6791091
3353.1809 6.5389452 4.6277986
3354.146 6.603477 4.6896548
3355.1101 6.6972132 4.7807484
3356.074 6.8120198 4.8929429
3357.0381 6.8815751 4.9599161
3358.002 6.7076821 4.7834721
3358.967 6.3414302 4.4146962
3359.9309 6.2155471 4.2863235
3360.895 6.4917259 4.5600429
3361.8589 6.642262 4.7081513
3362.824 6.5505848 4.6140747
3363.7881 6.4839911 4.5451155
3364.752 6.5799918 4.6387835
3365.7161 6.6532912 4.7097807
3366.6809 6.549664 4.6038818
3367.645 6.3552818 4.4072614
3368.6089 6.204823 4.2545977
3369.573 6.0972481 4.1448493
3370.5381 6.1253572 4.1708155
3371.501 6.3399138 4.3832674
3372.4661 6.5096102 4.5508866
3373.4299 6.5382118 4.5774469
3374.395 6.562058 4.5992823
3375.3579 6.670825 4.7060771
3376.323 6.7449169 4.7782254
3377.2871 6.6233048 4.6547055
3378.251 6.4171782 4.4467053
3379.2151 6.3673429 4.3950305
3380.1799 6.4660349 4.4919157
3381.144 6.6045241 4.6286335
3382.1079 6.7783442 4.8007174
3383.072 6.8962522 4.9169235
3384.0371 6.9261079 4.9451103
3385.001 6.907124 4.9244947
3385.9651 6.8543582 4.870132
3386.929 6.7691531 4.7833657
3387.894 6.618114 4.6307988
3388.8579 6.4275661 4.4387608
3389.822 6.2718821 4.2816224
3390.7859 6.1450639 4.1533856
3391.75 6.1879802 4.1949196
3392.7151 6.5429149 4.5485063
3393.679 6.7632322 4.7675142
3394.6431 6.6554942 4.6585026
3395.6069 6.5347552 4.5365276
3396.572 6.5949368 4.5955081
3397.5359 6.7091689 4.7085776
3398.5 6.7149138 4.7131968
3399.4641 6.6423192 4.639514
3400.429 6.5497122 4.5458555
3401.3931 6.4304042 4.4255342
3402.3569 6.3724208 4.3665757
3403.321 6.3849802 4.3781977
3404.2859 6.4748859 4.4672031
3405.25 6.7975278 4.7889843
3406.2141 7.0246348 5.0152683
3407.178 6.923564 4.9134135
3408.1431 6.7006049 4.6897082
3409.1069 6.5573192 4.5457158
3410.071 6.5014319 4.4891605
3411.0349 6.5751672 4.5622673
3412 6.7592511 4.7457614
3412.9641 6.7711339 4.7570944
3413.928 6.568429 4.5538788
3414.8921 6.355669 4.3406482
3415.856 6.1814952 4.1660433
3416.821 6.0810251 4.0651817
3417.7849 6.1538701 4.1376758
3418.749 6.2773652 4.2608604
3419.7129 6.350316 4.3335409
3420.678 6.3647819 4.3477769
3421.6421 6.2625251 4.2453308
3422.606 5.9948649 3.9775224
3423.5701 5.9650822 3.9476323
3424.5349 6.3248668 4.3073506
3425.499 6.5742149 4.556674
3426.4629 6.5941219 4.5765972
3427.427 6.5186262 4.5011592
3428.3921 6.3562131 4.3388457
3429.355 6.212389 4.1951628
3430.3201 6.2124338 4.1953907
3431.2839 6.303122 4.286304
3432.249 6.3694458 4.3528953
3433.2119 6.4064121 4.3901711
3434.177 6.4021401 4.386251
3435.1411 6.3486891 4.3331947
3436.105 6.3151202 4.3000631
3437.0691 6.296782 4.2822046
3438.0339 6.3454981 4.3314443
3438.998 6.5963092 4.5828214
3439.9619 6.7869902 4.7741117
3440.926 6.6483569 4.6361308
3441.8911 6.3764219 4.364893
3442.855 6.334836 4.3240461
3443.8191 6.467205 4.4571986
3444.783 6.4971609 4.4879818
3445.748 6.4078989 4.3995914
3446.7119 6.287365 4.2799726
3447.676 6.1331191 4.1266861
3448.6399 6.0383139 4.0328846
3449.604 6.028264 4.0238829
3450.5691 6.1078 4.1045127
3451.533 6.421308 4.419158
3452.4971 6.7564182 4.7554502
3453.4609 6.737464 4.7377224
3454.426 6.4602442 4.4617763
3455.3899 6.3737502 4.3765993
3456.354 6.5478182 4.5520296
3457.3181 6.6377449 4.6433644
3458.283 6.6276808 4.6347551
3459.2471 6.5598488 4.5684218
3460.2109 6.3504939 4.3606114
3461.175 6.1929779 4.2046862
3462.1399 6.1480198 4.1613655
3463.104 6.1759839 4.1910124
3464.0681 6.3071532 4.3239102
3465.032 6.4531398 4.4716716
3465.9971 6.3917141 4.4120688
3466.9609 6.179543 4.2017651
3467.925 6.1327982 4.1569347
3468.8889 6.2648082 4.2909055
3469.854 6.4159851 4.4440923
3470.8181 6.5923462 4.622508
3471.782 6.685813 4.7180762
3472.7461 6.5462332 4.5806456
3473.71 6.4286718 4.4652796
3474.675 6.5388088 4.577662
3475.6389 6.6776042 4.7187476
3476.603 6.5711679 4.6146498
3477.5669 6.3232179 4.3690848
3478.532 6.2685099 4.316813
3479.4961 6.4054642 4.4562483
3480.46 6.5211692 4.574482
3481.4241 6.6091509 4.665041
3482.3889 6.5856261 4.6441431
3483.353 6.3913732 4.4525638
3484.3169 6.2670679 4.3309793
3485.281 6.3744011 4.4410825
3486.2461 6.4745998 4.5441027
3487.209 6.2860899 4.3584557
3488.1741 5.9998088 4.0750933
3489.1379 5.9811969 4.0594444
3490.103 6.16506 4.2463236
3491.0659 6.3119149 4.3962364
3492.031 6.4213419 4.5087771
3492.9951 6.5232568 4.6138515
3493.959 6.652267 4.7460699
3494.9231 6.693233 4.7902937
3495.8879 6.5402451 4.6406155
3496.8521 6.4025311 4.506258
3497.8159 6.365334 4.472466
3498.78 6.3591828 4.4697704
3499.7451 6.3227439 4.4368401
3500.709 6.2943382 4.4119878
3501.6731 6.3239889 4.4452429
3502.637 6.3962989 4.5212059
3503.6021 6.4393749 4.5679893
3504.5659 6.4550009 4.587368
3505.53 6.6377158 4.7738867
3506.4939 7.0471468 5.1871705
3507.458 7.161406 5.3053336
3508.4231 6.733777 4.8816628
3509.387 6.3317971 4.4836864
3510.3511 6.2953839 4.4513273
3511.3149 6.393425 4.5534725
3512.28 6.543334 4.707541
3513.2439 6.6582179 4.8266296
3514.208 6.5274892 4.7001572
3515.1721 6.212225 4.3892002
3516.137 6.0347872 4.2161231
3517.1011 6.0315232 4.2172675
3518.0649 6.091382 4.2815843
3519.0291 6.290287 4.4849992
3519.9939 6.3897381 4.5890141
3520.958 6.234313 4.438201
3521.9221 6.1464558 4.3550062
3522.886 6.3223929 4.5356555
3523.8511 6.4737239 4.6917558
3524.8149 6.401268 4.6241145
3525.7791 6.245554 4.4732676
3526.7429 6.1714511 4.4040813
3527.708 6.1594138 4.397018
3528.6721 6.1715331 4.4141579
3529.636 6.1982932 4.4459882
3530.6001 6.1852121 4.4380302
3531.564 6.1200371 4.3780284
3532.5291 6.172678 4.4359002
3533.4929 6.4585142 4.7270126
3534.457 6.6248488 4.8986759
3535.4209 6.415257 4.6944628
3536.386 6.164659 4.4493017
3537.3501 6.053299 4.3434248
3538.314 6.0084758 4.3041353
3539.2781 5.9820518 4.2832975
3540.2429 5.9645481 4.2714362
3541.207 5.9130788 4.2256565
3542.1709 5.842164 4.1604815
3543.135 5.8945389 4.2186499
3544.1001 6.1045361 4.4344974
3545.063 6.2588601 4.5947104
3546.0281 6.3208742 4.6626787
3546.9919 6.391583 4.7393856
3547.957 6.544241 4.8981018
3548.9199 6.6010828 4.9610391
3549.885 6.3997488 4.7658668
3550.8491 6.2223792 4.5947042
3551.813 6.3386002 4.7171822
3552.7771 6.5594621 4.9443545
3553.7419 6.6581068 5.0493665
3554.7061 6.6455002 5.0431743
3555.6699 6.4076562 4.8117948
3556.634 5.9912572 4.4019136
3557.5991 5.8634491 4.2806816
3558.563 6.098021 4.5218735
3559.5271 6.2398682 4.6703935
3560.491 6.1689839 4.6062326
3561.4561 6.0751219 4.5191545
3562.4199 5.955337 4.4061966
3563.384 5.9058819 4.3636217
3564.3479 6.0869341 4.5516038
3565.313 6.2635951 4.7352557
3566.2771 6.178133 4.6568294
3567.241 5.9943562 4.4801378
3568.2051 5.9768968 4.4698172
3569.1689 6.101541 4.6016502
3570.134 6.2195082 4.7268667
3571.0979 6.3237081 4.8383589
3572.062 6.3163772 4.8383732
3573.0259 6.1547732 4.6841645
3573.991 6.1561489 4.692996
3574.9551 6.4561071 5.0004544
3575.9189 6.6331401 5.1850367
3576.8831 6.5265799 5.0860796
3577.8479 6.3613319 4.9284916
3578.812 6.2441378 4.8190031
3579.7759 6.1630082 4.7456288
3580.74 6.1050038 4.6954327
3581.7051 6.0705209 4.668817
3582.6689 6.0855398 4.6917448
3583.6331 6.1303172 4.7444839
3584.5969 6.1103249 4.7325025
3585.562 6.0294971 4.6597471
3586.5259 6.0111132 4.6494761
3587.49 6.074502 4.7210312
3588.4541 6.1479611 4.8027067
3589.418 6.2136011 4.8766127
3590.3831 6.2948618 4.9661999
3591.3469 6.462276 5.1419816
3592.311 6.5599332 5.2480583
3593.2749 6.4543128 5.1509066
3594.24 6.3160901 5.0212135
3595.2041 6.2975001 5.0111952
3596.168 6.293292 5.0156069
3597.1321 6.0981731 4.8291597
3598.0969 5.8214998 4.5612159
3599.061 5.8164439 4.5649328
3600.0249 6.0688348 4.8261442
3600.989 6.1111851 4.877367
3601.9541 5.8894968 4.6646109
3602.917 5.923996 4.7080712
3603.8821 6.3984799 5.1915865
3604.8459 6.594871 5.397048
3605.811 6.197567 5.0088749
3606.7739 5.8916969 4.7121644
3607.739 5.9727411 4.8024387
3608.7029 6.143528 4.9824929
3609.667 6.2767758 5.1250601
3610.6311 6.3225899 5.1802425
3611.5959 6.1744099 5.0414872
3612.5601 5.9442821 4.8208261
3613.5239 5.8192401 4.705297
3614.488 5.7819819 4.6776028
3615.4529 5.8598342 4.7650747
3616.417 6.0321498 4.947052
3617.3811 6.0842018 5.0088134
3618.345 5.992404 4.9267712
3619.3101 5.872438 4.8166208
3620.2739 5.7179542 4.671989
3621.238 5.6381049 4.6020417
3622.2019 5.707921 4.6818051
3623.167 5.8120999 4.7959919
3624.1311 5.951858 4.9457951
3625.095 6.0473628 5.0513902
3626.0591 5.9834681 4.9976354
3627.0229 5.8759789 4.900331
3627.988 5.8461871 4.880784
3628.9519 5.8822198 4.9270949
3629.916 5.9720778 5.0272808
3630.8799 6.1017609 5.167336
3631.845 6.171319 5.2473259
3632.8091 6.1610661 5.2475405
3633.7729 6.1679411 5.2649264
3634.7371 6.2137341 5.321279
3635.7019 6.206264 5.3244228
3636.666 6.0720768 5.2008867
3637.6299 6.0147719 5.1542764
3638.594 6.162744 5.3129907
3639.5591 6.2680669 5.4291124
3640.5229 6.1649432 5.3368187
3641.4871 6.0936942 5.2764473
3642.4509 6.2863011 5.4799743
3643.416 6.4750881 5.6797395
3644.3799 6.3784661 5.5941267
3645.344 6.1362939 5.3630104
3646.3081 5.9208841 5.1587005
3647.272 5.7793431 5.0283003
3648.2371 5.890244 5.1504006
3649.2009 6.1895928 5.4609776
3650.165 6.2898211 5.5724807
3651.1289 6.1772952 5.4712696
3652.094 6.0777321 5.3830786
3653.0581 6.0313258 5.3480759
3654.022 5.9690619 5.2972555
3654.9861 5.8326159 5.172298
3655.9509 5.8477831 5.1990051
3656.915 6.2300329 5.5928273
3657.8789 6.5051832 5.8795896
3658.843 6.2136531 5.5997157
3659.8081 5.8452902 5.243062
3660.771 6.0048618 5.4143577
3661.7361 6.3074269 5.7287145
3662.7 6.064374 5.497479
3663.665 5.5402789 4.9852571
3664.6279 5.4736581 4.9305224
3665.593 5.8007002 5.2695179
3666.5569 5.8022761 5.283072
3667.521 5.381176 4.8739929
3668.4851 5.275598 4.7804751
3669.45 5.6432481 5.1602335
3670.4141 5.9502282 5.479352
3671.3779 6.1313238 5.6726217
3672.342 6.2743411 5.8278542
3673.3069 6.452498 6.0182743
3674.271 6.4897852 6.067853
3675.2351 6.1860738 5.7764707
3676.199 5.880517 5.4832773
3677.1641 5.7499418 5.365119
3678.1279 5.6897049 5.3173194
3679.092 5.628056 5.2681479
3680.0559 5.5756459 5.2282486
3681.021 5.5635428 5.2287083
3681.9851 5.5652318 5.2429833
3682.949 5.4772782 5.1676478
3683.9131 5.33886 5.0418863
3684.877 5.3857498 5.1014647
3685.842 5.6291962 5.3576508
3686.8059 5.784512 5.5257244
3687.77 5.8243189 5.5783267
3688.7339 5.8253641 5.5921979
3689.699 5.7772651 5.5569749
3690.6631 5.7406902 5.5332961
3691.627 5.7319288 5.5374603
3692.5911 5.734376 5.5528698
3693.5559 5.7869558 5.6184535
3694.52 5.7814689 5.6259933
3695.4839 5.577127 5.4347062
3696.448 5.4375839 5.3082533
3697.4131 5.6060691 5.4898725
3698.377 5.8062682 5.7032204
3699.3411 5.762002 5.6721363
3700.3049 5.586854 5.5101976
3701.27 5.392951 5.3295507
3702.2339 5.2445688 5.1944375
3703.198 5.3171329 5.280303
3704.1621 5.5467191 5.5232196
3705.126 5.6954451 5.6853008
3706.0911 5.75454 5.7577968
3707.0549 5.7609 5.7775683
3708.019 5.726994 5.7571049
3708.9829 5.6503892 5.6939669
3709.948 5.5148792 5.5719671
3710.9121 5.5260801 5.5966911
3711.876 5.779737 5.863894
3712.8401 5.9116969 6.009429
3713.8049 5.729002 5.8403449
3714.769 5.557179 5.6821475
3715.7329 5.5810089 5.7196245
3716.697 5.6921539 5.8444438
3717.6621 5.872952 6.0389543
3718.625 6.0124841 6.1921911
3719.5901 5.931673 6.1251392
3720.554 5.7469101 5.9541411
3721.519 5.6457109 5.8667464
3722.4819 5.592289 5.8271194
3723.447 5.4399538 5.688632
3724.4109 5.2333169 5.4958472
3725.375 5.3228641 5.5992703
3726.3391 5.6720762 5.962379
3727.304 5.7689018 6.0731316
3728.2681 5.5830379 5.9012036
3729.2319 5.4713368 5.8034544
3730.196 5.4831471 5.8292389
3731.1609 5.4964032 5.8564978
3732.125 5.4763708 5.8504758
3733.0891 5.4918728 5.8800054
3734.053 5.5866308 5.9888048
3735.0181 5.675076 6.0913258
3735.9819 5.7647138 6.1950374
3736.946 5.7586532 6.2030702
3737.9099 5.4617772 5.9202995
3738.875 5.1809082 5.6535683
3739.8391 5.2549481 5.7417459
3740.803 5.4113889 5.9123349
3741.7671 5.3648062 5.8799176
3742.731 5.2385001 5.767786
3743.696 5.2397342 5.7832255
3744.6599 5.294807 5.8524981
3745.624 5.1326642 5.7045698
3746.5879 4.8202362 5.406364
3747.553 4.8653841 5.4657626
3748.5171 5.288579 5.903204
3749.481 5.5861001 6.2149782
3750.4451 5.7487969 6.3919406
3751.4099 5.8158588 6.4732876
3752.374 5.7705522 6.4422631
3753.3379 5.6712499 6.3572474
3754.302 5.4756489 6.1759439
3755.2671 5.33284 6.0474539
3756.231 5.2505698 5.9794903
3757.1951 5.273736 6.0169725
3758.1589 5.548069 6.3056231
3759.124 5.7754359 6.5473304
3760.0879 5.8132272 6.5994482
3761.052 5.7906761 6.5912304
3762.0161 5.7248149 6.5397058
3762.98 5.656642 6.4858685
3763.9451 5.614141 6.4577231
3764.9089 5.594162 6.4520831
3765.873 5.6114311 6.483696
3766.8369 5.6378908 6.5244961
3767.802 5.6413579 6.5423212
3768.7661 5.6146288 6.5299349
3769.73 5.5119958 6.4416399
3770.6941 5.3613162 6.3052998
3771.6589 5.3017278 6.2600598
3772.623 5.3330159 6.3056822
3773.5869 5.3819151 6.3689079
3774.551 5.452579 6.4538984
3775.5161 5.5188022 6.5344577
3776.479 5.6011848 6.6311383
3777.4441 5.617342 6.6616201
3778.408 5.528296 6.5868745
3779.373 5.4422078 6.5150971
3780.3359 5.334116 6.4212761
3781.301 5.2948518 6.396307
3782.2649 5.404675 6.5203981
3783.229 5.502573 6.6325579
3784.1931 5.5232801 6.6675167
3785.158 5.5585828 6.7170706
3786.1221 5.7218022 6.8945193
3787.0859 5.8149648 7.0018959
3788.05 5.6133628 6.8144979
3789.0149 5.4042759 6.6196132
3789.979 5.4519539 6.681468
3790.9431 5.5558228 6.7994995
3791.907 5.501595 6.7594151
3792.8721 5.3957582 6.6677237
3793.8359 5.367156 6.6532326
3794.8 5.4023418 6.7025156
3795.7639 5.5299969 6.8442459
3796.729 5.698719 7.0270429
3797.6931 5.7094321 7.0517969
3798.657 5.5856929 6.9420757
3799.6211 5.5418558 6.9122391
3800.585 5.5857348 6.9700937
3801.55 5.477746 6.8760757
3802.5139 5.162292 6.5745525
3803.478 4.9981818 6.4243531
3804.4419 5.04036 6.4804144
3805.407 5.0348148 6.4887447
3806.3711 4.9237819 6.3915477
3807.335 4.913558 6.3951302
3808.2991 5.102005 6.5973597
3809.2639 5.1986451 6.7077651
3810.228 5.0875421 6.6103883
3811.1919 5.0086889 6.545229
3812.156 5.0389428 6.58915
3813.1211 5.1003189 6.664176
3814.085 5.2397079 6.8171663
3815.0491 5.2792912 6.8703222
3816.0129 4.9568362 6.5614033
3816.978 4.725688 6.3437743
3817.9419 5.0280719 6.659626
3818.906 5.3994288 7.0444193
3819.8701 5.470057 7.1284471
3820.834 5.4227271 7.0944767
3821.7991 5.3757658 7.060854
3822.7629 5.333344 7.0317159
3823.7271 5.3026762 7.0142956
3824.6909 5.2831278 7.0079513
3825.656 5.2908602 7.0288639
3826.6201 5.311089 7.0622177
3827.584 5.29881 7.0630178
3828.5481 5.262218 7.039465
3829.5129 5.2364521 7.0267038
3830.4771 5.2173271 7.0205293
3831.4409 5.1302581 6.9463611
3832.405 4.9931798 6.8221407
3833.3701 5.1159949 6.9577789
3834.333 5.4771552 7.3316851
3835.2981 5.5541029 7.4213586
3836.262 5.3283868 7.208302
3837.2271 5.2235188 7.1160588
3838.1899 5.2929759 7.19806
3839.155 5.228323 7.1459274
3840.1189 4.9591932 6.8892488
3841.083 4.8872118 6.8296671
3842.0471 5.1232839 7.078084
3843.012 5.2434711 7.2105689
3843.9761 5.103241 7.0825701
3844.9399 5.0100789 7.0015783
3845.9041 5.0298491 7.033463
3846.8689 5.245286 7.2609639
3847.833 5.7682071 7.7958794
3848.7971 6.2132869 8.2528915
3849.761 6.4921169 8.5435886
3850.7261 6.4317961 8.4950867
3851.6899 5.7274318 7.8024611
3852.6541 5.088922 7.1756287
3853.6179 5.092823 7.1911373
3854.583 5.249927 7.3597965
3855.5471 5.15977 7.2811146
3856.511 5.0072408 7.1399889
3857.4751 4.9209762 7.0650606
3858.439 4.934196 7.0895424
3859.4041 5.192606 7.3591571
3860.3679 5.43398 7.6116486
3861.332 5.2242608 7.4129753
3862.2959 4.8384829 7.0381656
3863.261 4.7782578 6.9888468
3864.2251 4.921524 7.142931
3865.189 4.908802 7.1409469
3866.1531 4.8266311 7.069437
3867.1179 5.010777 7.2641721
3868.082 5.3736501 7.6375456
3869.0459 5.4666572 7.7409678
3870.01 5.279911 7.5645571
3870.9751 5.0723672 7.3672743
3871.939 4.861506 7.1665764
3872.9031 4.8074002 7.12255
3873.8669 4.9593849 7.2845244
3874.832 4.9790211 7.3140745
3875.7959 4.7736392 7.1185045
3876.76 4.717555 7.0721445
3877.7241 4.941133 7.3053551
3878.688 5.0813088 7.4550681
3879.6531 5.0827541 7.4659696
3880.6169 5.0606089 7.4531732
3881.5811 4.966681 7.3685007
3882.5449 4.9325881 7.343564
3883.51 5.0092568 7.4293022
3884.4741 5.0935359 7.522543
3885.438 5.1950469 7.6329126
3886.4021 5.2577529 7.7043777
3887.3669 5.2218871 7.6771755
3888.3311 5.231813 7.6956544
3889.2949 5.380002 7.8522892
3890.259 5.5023112 7.9829407
3891.2241 5.5836282 8.0725012
3892.188 5.5045948 8.0015926
3893.1521 5.0478549 7.5528698
3894.116 4.6828861 7.1958055
3895.0811 4.7400732 7.2607951
3896.0439 4.8821568 7.4105511
3897.009 4.9145732 7.4505424
3897.9729 4.9089332 7.4523525
3898.938 4.891037 7.4417992
3899.9009 4.902523 7.460494
3900.866 5.0143938 7.5794706
3901.8301 5.1308069 7.7028623
3902.7939 5.1253238 7.7042346
3903.7581 5.1007118 7.686357
3904.7229 5.2626009 7.8548613
3905.687 5.3913131 7.9900589
3906.6509 5.1230068 7.7281098
3907.615 4.7386298 7.3499641
3908.5801 4.5861049 7.203548
3909.5439 4.6036029 7.2270164
3910.5081 4.7266078 7.3558621
3911.4719 4.889154 7.5241146
3912.437 5.0196629 7.6602035
3913.4009 5.0772581 7.7232361
3914.365 4.9597411 7.611021
3915.3291 4.7622728 7.4187174
3916.293 4.737401 7.3988695
3917.2581 4.8423519 7.5087099
3918.2219 4.8788972 7.5499969
3919.186 4.8504338 7.5261331
3920.1499 4.8382902 7.5184436
3921.115 4.8421888 7.5266562
3922.0791 4.818717 7.5073466
3923.043 4.776917 7.4695592
3924.0071 4.86483 7.561336
3924.9719 5.0958052 7.7960267
3925.936 5.178442 7.8822236
3926.8999 5.0796862 7.7868729
3927.864 5.0449128 7.7553506
3928.8291 5.0920548 7.8055897
3929.793 5.1385078 7.8549781
3930.7571 5.1941538 7.9134007
3931.7209 5.193574 7.9154358
3932.686 5.1316009 7.8559179
3933.6499 5.004879 7.7314849
3934.614 4.795382 7.5241122
3935.5779 4.700212 7.4308996
3936.542 4.7415791 7.4740562
3937.5071 4.8135152 7.5476141
3938.4709 4.903904 7.6394515
3939.4351 4.949831 7.6866555
3940.3989 4.9398322 7.6777592
3941.364 4.9591308 7.6979861
3942.3279 5.0287628 7.7683687
3943.292 5.059927 7.8001056
3944.2561 5.0432138 7.7837849
3945.2209 4.9661222 7.7069044
3946.1851 4.829761 7.5705719
3947.1489 4.6575942 7.3982496
3948.113 4.4270301 7.1673441
3949.0779 4.3156939 7.0554781
3950.042 4.3911119 7.1301785
3951.0061 4.5072508 7.245409
3951.97 4.6631808 7.400239
3952.9351 4.754745 7.4905081
3953.8979 4.7020898 7.4363661
3954.863 4.669879 7.4024682
3955.8269 4.726017 7.4567232
3956.792 4.7725558 7.5011764
3957.7549 4.7617559 7.4880943
3958.72 4.759459 7.4833074
3959.6841 4.7952371 7.5163932
3960.6479 4.8390679 7.5573263
3961.6121 4.907598 7.6227503
3962.5769 4.9404731 7.652307
3963.541 4.8776159 7.5859232
3964.5049 4.8241138 7.5286827
3965.469 4.820004 7.5206194
3966.4341 4.8506808 7.547122
3967.3979 4.9488921 7.6409473
3968.3621 4.9956541 7.6831026
3969.3259 4.8998461 7.5824685
3970.291 4.7985249 7.4760923
3971.2549 4.7583938 7.4306879
3972.219 4.7633128 7.4301066
3973.1831 4.8410878 7.5021534
3974.147 4.8658848 7.5209942
3975.1121 4.6950421 7.3439569
3976.0759 4.590435 7.2329302
3977.04 4.7597418 7.3955808
3978.0039 4.9453321 7.5742803
3978.969 5.0173612 7.6391716
3979.9331 5.0195951 7.6340356
3980.897 4.951273 7.5581036
3981.8611 4.8957 7.4946756
3982.8259 4.9510751 7.5419445
3983.79 4.9759898 7.5585122
3984.7539 4.816988 7.3909168
3985.718 4.6589532 7.2240362
3986.6831 4.6386242 7.1945992
3987.647 4.676178 7.2228031
3988.6111 4.755373 7.2923899
3989.575 4.822825 7.349978
3990.54 4.8293691 7.3463864
3991.5039 4.806788 7.3134212
3992.468 4.7810421 7.2770252
3993.4319 4.7191768 7.2042475
3994.396 4.5133309 6.9872193
3995.3611 4.365643 6.8280687
3996.325 4.5372939 6.9880009
3997.2891 4.729466 7.168179
3998.2529 4.6171269 7.0435743
3999.218 4.4895358 6.9034257
4000.1819 4.681046 7.0821157
